Fp1,AF3,F7,F3,FC1,FC5,T7,C3,CP1,CP5,P7,P3,Pz,PO3,O1,Oz,O2,PO4,P4,P8,CP6,CP2,C4,T8,FC6,FC2,F4,F8,AF4,Fp2,Fz,Cz
0.9815852145626045,0.9842879622821197,0.9928656001172593,0.9779148758034709,0.9896749657150943,0.9779038977877963,0.9896485988899649,0.9652237048431406,0.9758512676704103,0.9857518345870483,0.9686816285744552,0.9840876430537723,0.9649187596486212,0.979764120691592,0.9762541521039817,0.9767034783755618,0.9726490931191013,0.9732740202252712,0.9866840801516457,0.9800452506293754,0.9751774710088887,0.9853195368935654,0.9871832511630516,0.9862474751800531,0.9845775847620971,0.9588748856381433,0.9887688883739427,0.9900458253171455,0.9886208552691615,0.984360507266357,0.9859985032804912,0.9849748962884572
0.9887624529598829,0.9804478973476083,0.9709891467756907,0.9740699742542589,0.9814968047764664,0.9877047378890915,0.9691463465920879,0.9896258206647136,0.9880212224523603,0.9926009946563749,0.9895987986523495,0.9884397615884535,0.9829656838896297,0.9903773468194371,0.9822067474678634,0.9904540574524255,0.9771503182882672,0.9771028544837606,0.9830705190752208,0.985608358571167,0.9915339842044479,0.9845441144790921,0.9781683066327234,0.9737607124247893,0.9739991412148278,0.9860189034459669,0.9650506254982537,0.9683855108758103,0.9853925328875022,0.9782131214388465,0.9894512599922181,0.9864617246525055
0.9894135602023065,0.9702289632384441,0.9585545256709513,0.9743591961127469,0.9693862118579075,0.981450782769842,0.9814073604851646,0.9737148315430509,0.9666118105411288,0.9883954059186844,0.9771964382858,0.9852866430369787,0.9896954478195611,0.9860766712625606,0.964790978173139,0.9598692524460537,0.9834406311671237,0.983498461377298,0.9880152424793548,0.9790172900066075,0.9649676150762319,0.9808564563216884,0.9852760070041997,0.9429609515862019,0.9618627685349737,0.9745040202645264,0.9697219036556933,0.9506781747446913,0.9732550886015795,0.9716175980951051,0.9707125336170686,0.9691924279026732
0.984629555867044,0.9764166433701503,0.9785832887082333,0.981244825886116,0.9823710934033396,0.9804940770358024,0.9884613551996859,0.9925971096318875,0.9856848147633078,0.9881439917441825,0.9888115510771943,0.9845947715800787,0.9776206739164848,0.9851972541065758,0.9587773970362063,0.9639606961353047,0.9864553236160181,0.9867567929017551,0.992981877045314,0.9924223764343194,0.9798528458578288,0.9890389415508197,0.9865066744795896,0.9840917935733073,0.9797061596354226,0.9679069931592048,0.9808638576984559,0.9796528336700581,0.9874729226033249,0.9886160522745614,0.9798022318420938,0.990209839753941
0.9858862314533847,0.9852259430624427,0.9705687349359704,0.9701097343162877,0.9706168636825819,0.9599971086913468,0.9791735849813471,0.9727793959238831,0.9851379746437867,0.9623390009176633,0.9698101964157512,0.98495865639427,0.9861960085375769,0.9580481700959637,0.9606309308398233,0.9552085268065315,0.9797432151877163,0.9792992587279631,0.9874997730016587,0.9625898188034534,0.9869133669709225,0.9824940523057302,0.9692884932849218,0.979671711614989,0.9543168512147776,0.9730072343503744,0.9788801309352276,0.9884736810927437,0.9820915979754974,0.9822395180105131,0.9699426932898717,0.980397728742252
0.9425212049210264,0.9821307600897012,0.951445925695261,0.9450976871514297,0.9805757417114863,0.9793689791813652,0.9777642148333793,0.9678552262307712,0.9863380667905309,0.9769509600371901,0.9636272576939522,0.9894932482508948,0.9902329176274979,0.9868106215207822,0.9732231094520252,0.9614674444593289,0.9819451206086921,0.9821949669575106,0.9813958657127347,0.9772769067747367,0.9895791743783274,0.983848700998421,0.9819132602188597,0.966455914117355,0.9717686613249141,0.9864174054198257,0.9632577147482282,0.9742185003889626,0.9812413952065369,0.979884096065341,0.9813128836876638,0.9876319014987409
0.8761861622857297,0.9274475234596892,0.9018633952164045,0.9761697053924623,0.9780761812794571,0.9657240887728763,0.9644630636072649,0.9818945796580691,0.9926733480298154,0.989696873813049,0.9855291105829443,0.9905862678458813,0.9551450163018069,0.9851270605791418,0.952926490709619,0.9555836956169864,0.9771087855282907,0.9778491340318018,0.9733130839002447,0.9537981917578705,0.9736870505309579,0.9729140592256598,0.971600965446198,0.9509126458127225,0.970093758066114,0.9766815033609301,0.977853819666386,0.9755112035219572,0.9850860760235665,0.9878673428465004,0.9771413904339826,0.9711800441912115
0.9548921855551834,0.9800750042180427,0.9742713961404801,0.964908101788294,0.9556621962981677,0.9796227900180091,0.9842529442332487,0.9842001299971131,0.9844305962260511,0.9810601548778418,0.9855506285408255,0.9873393183472373,0.9753853899775485,0.9847885251120693,0.9808171254568623,0.9798678452872609,0.9858782256073491,0.9873339470035094,0.9811632403341782,0.9828797104441517,0.9782974175726037,0.9680718925858675,0.9870585974037452,0.9440898736407155,0.9843484826921184,0.9822124530201414,0.9749072035292826,0.942585255034999,0.9842508793485438,0.9836504785092556,0.9788101400989905,0.9886187967281586
0.9663815605451612,0.9741110619823815,0.939665125500255,0.9547495625192275,0.9752966210051062,0.9747760751470194,0.9846072576002334,0.9845350435173041,0.9848214196910151,0.9798975628762842,0.9851068370310758,0.9876748490539233,0.9861481152757603,0.9826529364099212,0.9350771908454544,0.942115549813299,0.987874734296772,0.987702605145198,0.9889992681070715,0.9892188346220947,0.9835265221324461,0.9892747741987534,0.9863770828189742,0.8869647621923272,0.9568049813794,0.9824672715320767,0.9751936661743991,0.9099839552464459,0.9792198278574936,0.9803300712646358,0.9713580052686347,0.9672525214129969
0.9923281051877849,0.9752526271161294,0.9808488428579387,0.9420910190037316,0.9824405504714029,0.9759516950234586,0.9835373215013392,0.98047529676248,0.9867703228439885,0.98665439709996,0.9838371918288773,0.9852608600160632,0.9775866804062445,0.9873336315083763,0.9808950780905296,0.9784875579588461,0.9893834218885096,0.9894173561988375,0.987431676924681,0.9825697375406848,0.9855120232703304,0.9833357145416445,0.9768670579414951,0.9554059059989594,0.9708792218384641,0.9803232007726,0.9751619030229579,0.9647943190471338,0.9860328712569709,0.9876880153369436,0.9758737008355287,0.9773086237188775
0.9719582813459056,0.9779389285045488,0.9550887639481124,0.9769992713407104,0.9879050116275638,0.9882886751324395,0.9801189398780763,0.9818017382630185,0.9675617875843892,0.9872634615191808,0.9728418087665747,0.9818209138007571,0.9599344041525467,0.9422190278947888,0.9773725876382041,0.9765630852579427,0.9783918660855948,0.9788483703647898,0.9864112220407066,0.9893901243523234,0.9880273057472212,0.9802253097562769,0.9802388957657414,0.9613113941663353,0.982065660902495,0.9860001681987635,0.9865708856980651,0.9578220988220976,0.9829576471781375,0.980073452914616,0.9848896459132437,0.8923674628682314
0.9665352604070839,0.9853947798609107,0.9833937413223024,0.9707924227733682,0.9918018702109628,0.9720554557189904,0.9750098695864438,0.9364803053605915,0.9842881993957576,0.9848169115056745,0.9867165439892799,0.9870353592321421,0.9343070890023389,0.9855679477453454,0.9776559082291643,0.9813934628695865,0.9772104443128382,0.9834160582808796,0.9718113725591557,0.9802097268524395,0.986125956528348,0.9881714310159416,0.9861382340051696,0.9740624591614282,0.949003743224163,0.9905370834802877,0.9694457821929712,0.9780081989552806,0.9769098896948213,0.9777406669204448,0.9901461760760458,0.9869032947271186
0.9767561331010449,0.9808424004070455,0.9635303527672132,0.9086872226161051,0.9867063369540164,0.9873777539615065,0.9490353361743695,0.9889140984112113,0.9795708868378765,0.9783670108938651,0.9892152451320437,0.9880221463630985,0.9817790780009957,0.9791142146267581,0.9543694327888349,0.9707064879916038,0.9761194817222837,0.9770311504076087,0.9889043646595899,0.9365742417501224,0.9292891415831832,0.9722547233526015,0.9579334935305759,0.9610771643775128,0.9749640177820157,0.9750873022133689,0.9791523239752968,0.974396966962486,0.9482659238133374,0.9592724982587922,0.9896150553215189,0.9809365111378298
0.9868217470822185,0.97099520529078,0.9673315955021827,0.9825810929041329,0.9925624373732189,0.9829830142004247,0.9822169804659152,0.9775135497740113,0.9867939063099592,0.9678207348349241,0.974444853619274,0.9894356792600723,0.9202821535296221,0.9927626599915479,0.9805786836618056,0.981824333340108,0.9769707959890194,0.9770900490948868,0.9729556523785181,0.9800918228477812,0.9707896418013519,0.968978523431378,0.9932910328575513,0.9683658701981686,0.9625912593261443,0.98941748042663,0.986522085519129,0.9672716385378284,0.9818181804112665,0.9750656586593817,0.9883297811709103,0.9778005386046211
0.9389734491080552,0.9800057038080375,0.9853614949288787,0.9791418959622957,0.9876682833217603,0.9688675117038338,0.9879993455654098,0.983053069907263,0.9785379617303454,0.9754345463344897,0.9837764899354167,0.9817416201298212,0.9757827318042436,0.989391564262433,0.9899334374987628,0.9912148607413426,0.9836053807471855,0.984027856704191,0.9900403234400461,0.9780899853428456,0.9877454381813275,0.9860254730209645,0.9525535335751529,0.9848381471979653,0.9766290760133315,0.9859986595095417,0.9753895346095386,0.9827516632142579,0.9876486778595905,0.9906526617213004,0.9875327465178486,0.9814047419816637
0.9501794023637111,0.9758529911291267,0.987666390286723,0.9604817180929743,0.9919098830199932,0.9806753213056622,0.9840942291566536,0.9866151633025197,0.9796358488448267,0.9733229657236793,0.9817769369730698,0.9824271145582031,0.9856830149473937,0.9757418567509055,0.9828279894962895,0.9818019888628462,0.9780773428481919,0.9785520425136945,0.9673629316154121,0.9895862735010051,0.9794479697802805,0.9813498275189755,0.9821451080284905,0.9533165469336692,0.9522862671969581,0.990748029459923,0.9857245776548432,0.9431838370878297,0.9803961281704913,0.9795042880873822,0.9899011533691428,0.9765440798768688
0.975510376453878,0.9807320957872858,0.9784863137685781,0.9837451559423402,0.9875408635840537,0.9733915527995297,0.989565883319491,0.9796461195813663,0.9848500532226028,0.9926598066829246,0.9834100914189312,0.98838942967729,0.9873215390569412,0.9825685095840726,0.9672325545016831,0.9697453082457392,0.9812572421682729,0.983760790523438,0.9833108226820669,0.9860786960863382,0.9824953746678297,0.9836268341159784,0.9830271563200585,0.9820453868063768,0.9829368070714259,0.9832067500242815,0.981510726561239,0.9772075755785848,0.9917737547761362,0.9940120895616505,0.9868244858222683,0.9886225957490438
0.9318480468535582,0.9910994500791502,0.9794296583278879,0.9874052481767731,0.9811658349759778,0.9797479175937552,0.982371037477695,0.9777727394271432,0.9841677357028776,0.9821555405092708,0.987580420005161,0.9872177724141237,0.9725334853594284,0.9868008376194253,0.9715021698868849,0.9728577796613163,0.9823660931408369,0.9819121110695346,0.9925942350436551,0.9878531825636897,0.9855837114113303,0.9846572248566663,0.9830402443461465,0.9640154692484643,0.9539297858489809,0.9905570127249551,0.9907422507486011,0.9624043101476699,0.9831565509314966,0.9862520987840876,0.9828091459253765,0.9751010920682315
0.9790334427032683,0.986805523152381,0.9633920752251388,0.9306155097188659,0.9688695094121397,0.9685705129284102,0.9713711772262272,0.9740347642319289,0.9929383704213064,0.9852768476679943,0.9780179965906008,0.9919617969381508,0.9809629595873193,0.983913819332014,0.983260507372814,0.9822901552183948,0.976308258271858,0.9758079206826717,0.9880874166254008,0.9860280564877929,0.9794570733847766,0.9842256904083645,0.9890008728542606,0.9861002211337992,0.9801253494476111,0.9554431321851291,0.9694072765154768,0.9821231445195793,0.9910563895090643,0.9865183491256136,0.9842150037569158,0.9880331136863921
0.9644148334424512,0.9825113116340923,0.8634874227326688,0.9793387413917611,0.9853753997440067,0.9845215887434724,0.9675962746190884,0.9890815030006541,0.9889275426587999,0.9850525861894849,0.9837922691062357,0.9872735622349118,0.9912150592695265,0.9855521952896042,0.9611799241464907,0.96478519592893,0.984706463167859,0.9848817818882696,0.9677853911211395,0.9262787490357118,0.9796865952152534,0.9785905771490412,0.9939312034917777,0.9722138686822389,0.9725129149037263,0.984354603792513,0.9883840436799718,0.9634461313972019,0.9868902374903374,0.9861813625500425,0.9877542836823626,0.9820748314597343
0.9593668219933549,0.9740053115844617,0.9733431687828984,0.935735892424296,0.9739086539496764,0.9081580031505954,0.9757921125204169,0.9637902609928816,0.9755431042762205,0.9828742209541791,0.9682563321584918,0.9901127559771277,0.9693713518944664,0.9877754307939662,0.9869636430048039,0.9883393825442188,0.9953199001318,0.9958163656387172,0.9754796998319565,0.983901460064981,0.9730458153187237,0.9811145942106245,0.9668527312703076,0.9850430788993713,0.979622687359955,0.9840435723248449,0.9633480386762255,0.9853364597172637,0.9840568459726373,0.9871551367764247,0.9688139152344397,0.9814357599714421
0.9818371478840584,0.9492975512020002,0.9523906194315203,0.9617791823656207,0.9871885913517608,0.9697260704396007,0.9773571061363248,0.9719211989292112,0.9694807082625764,0.9857014192189173,0.9821696789692154,0.9797334893929266,0.9683177210488699,0.9834949459313641,0.986653304700094,0.9871791865907644,0.9729742289417737,0.9728732101629453,0.990416448839102,0.9789780766585215,0.9805347744891681,0.9817677590461974,0.9822150436199681,0.9608273181432891,0.9597249514193685,0.9893487634369365,0.9780126568099287,0.966779578625928,0.9351264830388715,0.9094829962045824,0.9740121962716053,0.9704848483342611
0.9619450153342382,0.9814880198179241,0.9653287929906137,0.9345908216567155,0.9878170481863542,0.9803049217827602,0.9777977682993754,0.9511934975297782,0.9826384794549312,0.987516159995857,0.9763844536507912,0.9899494691327401,0.9886271085816434,0.99072809401043,0.9777864836528839,0.9829860249833238,0.9857890602514743,0.990331652695365,0.9756757025545172,0.9624495229112848,0.9702820346447881,0.9913547228520712,0.9793281393541828,0.9887744121976534,0.9720946453383672,0.9735533987848632,0.9809762162186785,0.9885350540273995,0.9901025208537609,0.9916640743674593,0.9891159397777608,0.9774459763455804
0.9657208712063506,0.986127233047008,0.8948417836310927,0.9719374120689636,0.9894543789574592,0.8852382893779015,0.9838622841631103,0.9786335217832312,0.982745609640823,0.9895849735823191,0.9740534207051282,0.9911248945390455,0.9462520735365111,0.9827746395884719,0.9647841771961969,0.9631468359723885,0.9833882542486279,0.9845752283646855,0.9879003136486864,0.976776431148311,0.9881575812609356,0.9647878624468789,0.9883769141880173,0.9822227775505012,0.9909422917972922,0.9844393775477025,0.9656193012630151,0.9858244496747626,0.9843243827952094,0.9918031619663948,0.9631933274626879,0.9665386229254288
0.9830531284090882,0.9783821566254298,0.952863372225935,0.954591678597577,0.9845803880926953,0.9587758035259131,0.973955435627866,0.9782373929025087,0.9803328385622792,0.9789367892607153,0.9847817526333134,0.9849745717684707,0.9867204451076637,0.9830386122442747,0.9829240825683917,0.9644346261444525,0.9924907571117885,0.9924870452389707,0.9813494102862456,0.9820442844453051,0.990571259101655,0.9899680590549864,0.9688668827909317,0.9885341402193254,0.986372795791152,0.9838514483012384,0.984431991798135,0.9851112236071756,0.9809897416447573,0.9765328337441641,0.9812523533080493,0.9839115572928485
0.9814855436743257,0.9831931064131307,0.9751342486772397,0.9575620116410001,0.9829512664543915,0.9645980976620695,0.9817353938756783,0.9847100818870835,0.9922152179061158,0.9837339546036596,0.9757467471169115,0.9853388139723271,0.9864795379546676,0.9811881510705883,0.9802216763816946,0.9840740512596517,0.9855906134547409,0.9862957556210161,0.9796378407750084,0.9848699179373257,0.9908402713741442,0.9835053588538583,0.9603162365772376,0.9813825451302074,0.9633799341348834,0.9812879193253948,0.9822221359768262,0.9768520918228767,0.9651614551334824,0.988609721772505,0.9795722703648957,0.9832363856218482
0.9916722691495403,0.9905457733907461,0.985722062492873,0.9920168356520179,0.9938243946194578,0.989940532381973,0.9708514639971119,0.9829323836268521,0.9742934736920562,0.988506054953421,0.9735068709778895,0.9787547294799155,0.9710460022934103,0.980802692741244,0.9600280152588881,0.969131590808354,0.9845402491290499,0.9840358527149841,0.9795945403263752,0.9894380955727288,0.9907690387642233,0.9808452786521987,0.9839719329131446,0.9738254813349838,0.970966045258613,0.9845457240428152,0.9872516010405588,0.969177190716649,0.9912422566616474,0.9922574959540994,0.9868055175329731,0.9775023238741156
0.9642579140724111,0.9751608384460523,0.9674737846387129,0.9664949135364442,0.9902607061518405,0.9381925737199207,0.9824252219847874,0.9708451838189984,0.9901486950166627,0.9888636781797334,0.981777785736641,0.9921359934111444,0.9801651115813619,0.9860791338332248,0.9888119283940476,0.9898234627547101,0.9846120220776716,0.9851514735883523,0.9876051147235336,0.9827200190555176,0.9926811928101681,0.9901056705700183,0.982338714918289,0.9746487342006026,0.9722737902899434,0.9877127046135745,0.9836073154846556,0.9740379073235383,0.9841588588017325,0.9891528663766819,0.9850083987236243,0.987746216316704
0.9516158963702629,0.9750073329484179,0.9726749260224646,0.8319563943035282,0.9736616016801726,0.9807202778276044,0.9727118973368618,0.9756369448635815,0.9853830042158904,0.9795235762321591,0.9822783507368232,0.9794788789765863,0.9817757674562603,0.9826981134208382,0.9899076040863327,0.9897791152721356,0.9744458191078127,0.9722142713489369,0.9758397493096456,0.9777614891783348,0.9878560046186835,0.9792117232265455,0.9634834263368919,0.9852797689947299,0.9807027442175018,0.9821127281560563,0.977094551153863,0.9859641946760367,0.9768317757566204,0.9813348627191861,0.9778972508458418,0.9743898983178435
0.9741522645065607,0.9791446081051683,0.9610895590607881,0.9298721625368509,0.979641529452235,0.9843938548420853,0.9886839055676683,0.9828410458320206,0.9810154508839297,0.9869229668352107,0.9891823297638516,0.9817158890041753,0.9848667774064985,0.9742068433460865,0.9721943826691742,0.9719417088565306,0.9849571222425516,0.9848007658941091,0.9694029954064076,0.9773099143899875,0.9693402082370107,0.9838916537297882,0.9906899413650005,0.9569138946816471,0.972318463061159,0.9766898124715778,0.987439673584364,0.9790951340107953,0.9865565900839274,0.9848526345741685,0.9725184416107681,0.9805387663386143
0.9872743559665085,0.9917331523384162,0.984447955471342,0.9681726888687368,0.9843372537674794,0.9869125642807427,0.9668121347770103,0.9782143864955738,0.9827871774445055,0.9862819548596642,0.988468492988393,0.9720260332352959,0.9710876536812861,0.9804623586921865,0.9856617384970163,0.9852925367540527,0.9854987302033609,0.9844863052517161,0.9890887154214739,0.987568417243494,0.9840633523882724,0.9891895723538319,0.9896344976770614,0.9841238308444102,0.9796166808210908,0.979595437084625,0.9817515391841318,0.9754965154748044,0.9767885376245555,0.9608749880643422,0.9775510598961553,0.9759786007208596
0.9809158496491633,0.9832431209085677,0.9871163209479502,0.9546228776970287,0.9694108088455046,0.9565981125146809,0.9842978300909632,0.9767566029302415,0.9887798576746184,0.9788841928888384,0.9743256718843152,0.9816971669684257,0.9755234400445295,0.9749658401036281,0.9727493394853433,0.9716063315422955,0.9705140591237177,0.9698019495848107,0.9871476907944581,0.9847616410883798,0.9853738073203235,0.9838436456234692,0.9753598321110641,0.9163317360689499,0.9429082487463892,0.9857290149317175,0.9862961160645187,0.8878200068021547,0.9713235138069897,0.9668648297012825,0.9774179646386344,0.9868960591214669
0.9880820464342169,0.9834247263657103,0.9858840143978284,0.9669472557704237,0.9907770985207454,0.9807995625201864,0.982626570010136,0.9762365669465751,0.9825260238971218,0.987013300057652,0.9881099823858387,0.9824673372320009,0.9811375571123954,0.9837972455360868,0.9797837095840891,0.9811814429684619,0.9801732532369108,0.9795473436546619,0.9818722394699287,0.9706680285433316,0.9816359692624105,0.9708278889726055,0.968215930771066,0.9839374386809668,0.9805477374057266,0.9849956249993207,0.9795383029158391,0.9810370772070788,0.9850874148571233,0.9932870585067639,0.9882303570178813,0.9735560777013279
0.9798557363157525,0.9892443161956732,0.9613369033348292,0.9794273318309562,0.9834085226168005,0.969888084999425,0.9857245348021388,0.9342316097202571,0.9722931537699041,0.9764124096568867,0.9812097931563476,0.9773790735005767,0.9959330611486122,0.9923008557815414,0.9849802647378476,0.9842878304188194,0.9846502476527019,0.9846888527624946,0.9804911337552373,0.9875565724795784,0.9842116441361306,0.9895835728614918,0.9637563655751502,0.9784026562007707,0.9772586148022383,0.9668993437000195,0.9822848659875344,0.9707156985188132,0.9872445341110411,0.9858790226852141,0.9729213950869019,0.9779360648963056
0.9727187220699576,0.9508634094974857,0.9498979524978937,0.9575264186100242,0.9869132834396095,0.959148859145414,0.9868788340992595,0.9891637986996773,0.9840330984038417,0.9859996490346028,0.9872297637630408,0.9865470325410033,0.9794308549582913,0.9714577298100132,0.9673160197152052,0.9797598909851886,0.9822985959742206,0.9830235320793745,0.9831943720234352,0.9750227316836102,0.9851589362488498,0.9817921394986323,0.9749443139173506,0.9636224721155331,0.9521395283900785,0.9857326656524416,0.9626671101759635,0.9207845385830592,0.9700020849856825,0.9576958738434125,0.9866986398423507,0.9776357002013587
0.975145474262363,0.9780705217498304,0.9522691222585513,0.955076340224407,0.9889396941334768,0.9789649208095034,0.9843042574436955,0.9878776883147989,0.9895088025982137,0.9815119954965129,0.9887648957593235,0.9921573056999524,0.9892868848329718,0.9860240117197333,0.9752272380346875,0.9757002463779166,0.9720325243796423,0.9715896676819051,0.9817025084654653,0.9756184581186998,0.9664024171559219,0.9665603686740419,0.9689180356732917,0.9888295242146452,0.980547993385766,0.9667297363016328,0.974163376294626,0.9830547401205489,0.9903604484164753,0.9936862788514506,0.9815770530881022,0.9844008448418066
0.9864544102991867,0.990038519299463,0.9619352899878104,0.9801075808655333,0.9711643854300288,0.9459185497758963,0.9879582461018789,0.9678259189853565,0.9904260485750264,0.9844801910403298,0.9854779384268102,0.9825207069098234,0.9837355272626186,0.9902838877485929,0.9564265377276217,0.983581019740271,0.987311071858418,0.985847569662411,0.9758606610608367,0.9797210486342558,0.9664350415740223,0.9806360178468656,0.9633499160850257,0.9808723199908226,0.985577506407926,0.9865615025759966,0.9802021849224423,0.9225016316013002,0.9880764741525548,0.9803066711212461,0.978494497586669,0.9674952249350938
0.9704796832415987,0.9838913979501881,0.9258044014867939,0.9752866566715351,0.9822367486167619,0.975448391358531,0.9897568391972769,0.9600593521671127,0.9874839425697102,0.9788477256014229,0.9853079254807704,0.9706103484188366,0.9843348283221126,0.9758940594649176,0.9759617447972586,0.9753213924602191,0.9643325777709172,0.9642884924755636,0.9848549642120232,0.9794324001939365,0.9824929042259295,0.9829388570181179,0.9841630626700595,0.9691175892573782,0.9684223814976547,0.9842186849381686,0.9830991048905863,0.9360932176649387,0.9863696087636805,0.987002129412728,0.9718384141340952,0.9733055553543235
0.9511310259743961,0.9735264608107397,0.9400696686570228,0.9793946422711557,0.9583604623308952,0.981866025644478,0.9770772222508222,0.9802437551205745,0.986271769122292,0.9830330149050962,0.9900702019197016,0.9832443394331373,0.9836248098219852,0.9880212268381192,0.969943991407122,0.9675236417008365,0.98530635377097,0.9847501277754649,0.9838365487206144,0.9867295860925341,0.9776333168960145,0.9776411727982774,0.974537644070164,0.9158688978362053,0.9640997752638796,0.965753155043779,0.9796413279338042,0.970596863876447,0.9814600345215917,0.9823250399031155,0.9811151623377207,0.9895026881911427
