Fp1,AF3,F7,F3,FC1,FC5,T7,C3,CP1,CP5,P7,P3,Pz,PO3,O1,Oz,O2,PO4,P4,P8,CP6,CP2,C4,T8,FC6,FC2,F4,F8,AF4,Fp2,Fz,Cz
2.213053161660018,2.210177754001476,2.2281396806318368,2.1765813321861476,2.2030113566097387,2.2807342260451593,2.025141580391338,2.343067823152192,2.4757188483953185,1.9424404895570937,2.0043453512652087,2.315017440728832,2.3517739812798024,2.4320054245104847,2.2695303609230795,2.5007456044496954,3.0398075320196454,2.54043432268852,2.4976967110744543,2.593921022484156,2.464305039368086,2.349920856338704,2.0617101763666366,2.036168034665457,2.050517563878572,2.148377649046021,2.3986043641487815,2.4855164523291458,2.43506597239003,2.418373777745926,2.2182228214707065,2.3463679774180584
2.6968139341015265,2.7290667943416067,2.9341628986287533,2.8285202904801605,3.059531104063387,2.5354833525369105,2.5471516213558685,2.559831416528864,3.3315852223418103,2.6444667968542905,2.4825038243996835,2.5521031360787925,2.1948208613409315,2.53652598273701,2.7760841885612666,2.7290761877314864,2.8224040080368007,2.8332479254982994,2.88590446979229,2.358282994320315,2.397696441672822,1.6483033770876416,2.4371121244120086,2.58673529105902,2.437887129390949,2.516386251089388,2.5972068195219924,2.805835062785542,2.5801936860571764,2.596942961080129,2.730450843145908,2.499826600409403
2.935348942104613,3.0853921362366834,3.0516538657728662,2.857207696546802,3.1157701696164155,2.8620754940923723,3.489683566421387,2.926822223412116,3.2950522575419137,2.8383978252793267,2.675364348203892,4.054047995730468,4.238647654735374,4.192762611711496,2.942339568813955,2.969957445233765,3.453286453508119,3.5107236658149468,3.6300122998245348,3.2853590518794236,2.7815903879237958,3.273228671149353,2.82214079643689,2.400709590644447,2.772431902355504,3.3680893815906754,2.6544755713213597,2.9363907083918748,2.6765079501997118,2.6618590964976194,2.97538343907384,3.8177834605377625
2.6122922431571127,2.5874221126053785,2.4734862777115896,2.919038580690152,2.484844989056324,2.86308591641874,2.6278897158682173,2.8501481336175813,2.7763270241718603,2.450070520115218,2.8969565145282368,3.220207752136632,3.081891582056582,3.1783552471305017,2.5820184298370052,2.729604175313035,2.745110373289615,2.8399891054435797,2.9533012594602095,3.0762044953196304,2.9364096512016675,2.6991240458898806,2.4690837309321667,3.2300685185318248,2.565006233947433,2.8999968694332052,2.71472233483251,2.232046139704035,2.7223117831306123,2.714334418300225,2.590644431669657,3.106259350458845
2.3382991751715867,2.347201897465796,2.5284475079633197,2.5358108181851864,2.5722672629566934,2.368879615814775,2.7800485609313754,2.2989686951610486,2.6539738633621512,2.729688553817706,2.588118035060255,2.7269770234571054,2.538330907175288,2.860490020335547,2.4427115934908725,2.418976931994436,2.7732633181885684,2.5862926009366074,2.807771836693334,2.7202534170879407,2.7414810633827393,2.2572319048231164,2.6621358469764176,3.696722808496096,2.7885770752356387,2.3995244416844934,2.449624327764893,2.333114830683928,2.4957482649480576,2.522945493786723,2.32947683372015,2.5137292574787247
3.084442146399627,3.022102585221928,2.95722023771063,3.340260311314947,2.9596541923850577,2.8245833799948388,3.3594278179631507,2.595148578214614,2.8003903452690313,3.162931340907714,3.5610928181345236,2.9635272588002097,2.5764075204990133,2.487874178854272,2.7134588570660294,2.7844419042977973,2.768650766552161,2.8092450792555947,2.828157098326255,2.587877165540085,3.1659960341007256,2.820257636387982,2.5540227208935518,2.4871153494547116,3.044755550600254,2.805619237108301,3.0852746356126253,2.7544900575044156,3.0981068633737223,3.0971122390883647,3.143161495103865,2.712710560721362
2.9401575375349194,2.941650776900905,2.8805411753164862,3.1135062692597164,2.840969778198326,3.0077816734773752,3.4727429095158855,2.9583782781555272,2.8987258939432468,3.110331856384264,3.020548883040626,3.6603195764965757,3.855630294977648,3.8184785394538636,3.5452685186281085,3.2697459078282707,2.6849461703840314,2.6941580469679796,2.74223549774588,2.9268024323394015,2.1020855892402155,3.3784562668569493,2.9549311756310046,2.8439298927735375,3.0830839779726356,3.388979822195721,3.019044715959865,2.897546136563513,3.0177710867158405,3.0070608973244224,2.965993977833622,3.4135894581287025
2.376614439305205,2.4582150978287722,2.3385191051333662,2.511147582100664,2.0600431484597896,2.261969317691821,2.304273796814232,2.25602217553516,2.557065277773382,2.0813517687548093,2.8253315020711987,2.773942078297998,3.253034763329803,3.002027063257123,2.259219473402228,2.612041259466862,2.4545130224046035,2.548429142881736,2.478655142061188,2.366047110599188,2.2293908903956807,2.274519473402782,1.9780574008170535,2.513676344033303,2.005745247302847,2.287311321689566,2.2329250416937927,2.0621068159640523,2.253359929110493,2.269514689348517,2.5235249479718056,2.8067968796458374
2.4811728002727667,2.434673757572623,2.4318514775459867,2.4561478577566365,2.3569434607493336,2.308137401427763,2.1348134821425306,2.283625219289505,2.398535772108911,2.4694174630135937,2.4284393602350383,2.419320975459766,2.3497065813449876,2.285184891714713,3.040932071319254,2.656602804923795,2.283537158919591,2.2931907412308044,2.2951299499239313,2.35947324645832,2.7172477431850295,2.5465952372113767,2.2550273393392186,2.0045595627475707,2.2320446135742817,2.77055435749593,2.2893377848654475,2.192123883518065,2.2782787684024206,2.2952292471646127,2.4179988358221234,2.5011017053528923
2.6868828531601423,2.7921733232724213,2.8311212459618806,2.9851013571248584,2.944301801071411,2.4803985557210977,2.401738828585255,2.410597749903182,3.130913491052565,3.10421771261852,2.612170518125569,2.680491886952058,2.794761434526807,2.732961519133948,3.2750491776554447,2.9617359185528698,2.9368579252593903,2.9132412272625894,2.9072798077089153,3.3798637376350906,2.475345733378807,2.9054507873094666,2.0059513182450748,2.46345690118346,2.379553162428465,2.5791297499289896,2.3272646206376244,2.4928571912891844,2.367335130141173,2.4235254079505273,2.7058119535706133,2.8896384357399527
2.8275735657232652,2.815432236357994,2.879530669000234,2.5496109427452316,2.752349393372167,2.5090255511697714,3.2718745846368766,2.6515992554314884,2.9144485488408693,2.7968573579816125,2.9676509686914097,3.2669196608041267,3.4185664720576328,3.3656833259193215,2.5906471360637955,2.484576678698439,2.7955980953405852,3.1591392838318635,3.2815052971784073,3.068516283717478,2.982162662916329,3.148086252096874,2.3994630481466492,2.2805701253269817,2.6105482427604727,2.793868709582992,2.9726342384112265,2.559454545995878,3.0320730251108396,3.0318581303078673,2.687646003480037,2.7184016117938508
3.2438126299718553,3.213009852699358,3.2152475466170625,2.339220739845661,2.9865294978215173,2.8889187322778835,2.9990109966556613,2.8109636962185,2.778217970560236,2.671564863469078,3.038164588216129,2.903940209490351,2.9315958810373277,2.9786164985703945,2.926570300801319,2.6530543799911084,2.976368759536667,3.0570575173743295,3.1087390334903433,2.3791746214610594,2.6489445751892275,3.1006943132890985,2.4154984619120703,2.405418412600496,2.2369726694645196,3.212742439614439,2.8100849357948188,2.072172346922276,2.7688362480192343,2.7519927234969255,3.2284243208884735,3.382471507918123
2.791152793918286,2.663295808843191,2.6912705487988418,2.292586580313957,2.470680499181959,2.290175220841212,2.627331825191332,2.3264114378350396,2.295581663694743,1.9713722267050526,2.620032057746283,2.486704675212734,2.6540331151196668,2.4749315379532577,2.379198099658034,2.4699250136300623,2.9420478808931527,2.9582233566398193,3.0241164922408283,2.800807742927944,2.8010371475494824,3.269542816020466,2.680356728332658,2.397944288945876,2.07890158409275,3.1660063654838235,2.815185575019683,2.089854863813208,2.7995871416030775,2.746751559920444,2.637891938329558,3.0310502384331413
2.4173988562277744,2.458920245591297,2.4507723501684056,2.3850716405871903,2.540189022214901,2.2816457046945273,2.3003676496827334,2.130953391283309,2.363506207579345,2.4658932406554475,2.2065375976901422,2.165212357561896,2.303172058818787,2.263940555348466,2.5305729137023563,2.6453879831670983,2.377128568405265,2.297770427604157,2.2777060861384553,2.264776531824535,2.7986788965169107,2.1287833472045725,1.8564235373287659,2.3801953152518514,2.251427824403263,2.338800902226174,2.297372713530602,2.2508557039940023,2.362555901278736,2.3415496795410626,2.425127633011643,2.5418747604452356
2.0011894917369877,1.9099394672399759,2.096672252744155,2.2002271644053506,2.1683812660205355,1.9122906542608091,2.1599997505515995,2.113560690826626,2.28080177850316,2.1948427162366517,2.374987843446035,2.493380562422231,2.4604277212400505,2.5131098275755828,2.2915945817995285,2.3887786076395208,2.8110490097556955,2.5456699521400137,2.578546274194167,2.1338291265484006,2.190668323570546,2.330104108433735,1.8218496551430337,2.173502575596745,1.9157239095343739,2.1994079663960244,2.401161064359034,1.8202974011639015,2.3421181841524175,2.3863072739753344,1.9868514673375655,2.247390022034149
2.7647054490933245,2.7998782216667615,2.9141285672532242,2.7091999566494267,3.0045248741020445,2.591415153456447,3.2593116207262858,2.614032949882758,2.985654064373302,3.901494230123538,3.1570053352743694,3.7051859501019386,3.297931131270822,3.465736684104403,2.9709800832917925,3.0700399502962448,2.5247553932273634,2.588047177590056,2.6169973770202266,2.6614677869380183,2.7605282122390293,3.2511820583601105,2.8798981767496956,2.8580878943414922,2.4154626519078093,3.3859953487775787,3.1780935235375813,4.540931777537866,3.367208467206048,3.339225403230188,2.8303332196244426,3.5888898061383485
2.5868031115388583,2.686972423230458,2.8214623063418953,2.522733832848772,3.0049534549688803,2.8164546673437214,2.774658101008032,2.914115086348144,3.223461427844894,2.441077499098947,3.067769074191514,3.1190949207761003,3.106082060678386,3.133047107579041,3.378469579062522,2.9944407490203875,2.7597775792607266,2.7003488051011777,2.589864057083451,2.816297047542156,2.6559047772867608,2.316188602755426,2.237126643445674,2.814644709644717,2.607544212976121,2.847240588478137,2.72772172794869,2.2345327390841536,2.6513002645400934,2.641071267989046,2.63831979161902,2.772470505791556
2.3408802997695415,2.4032561447325937,2.4229804748460797,2.36049150839368,2.5590116340360596,2.11985318952163,2.656335582850883,2.0688878624726503,2.4632536648625423,2.269644107914444,2.812423951009388,2.3460042956403884,2.439310427276131,2.485265438178142,2.96559875981068,2.45431059649468,2.521697867429437,2.5508003947510054,2.6095178136851938,2.3800572435754774,2.3753501670540595,2.3665234364270966,1.857791409091828,2.0879111039375458,1.924158579915841,2.4774537211761145,2.20880416575079,2.2621776681261454,2.2036755683660187,2.221926517868201,2.386455842206195,2.9712055926069882
2.95925796338418,2.8237492382825153,2.633805143221463,2.7277054570478683,2.4442603615039418,2.384116709144395,2.394845558787456,2.1872272133381445,2.194026383147999,2.2819375868863507,2.5006614873196353,2.477486384149372,2.412852308312599,2.467149042962285,2.730119551112673,2.7672531791491055,2.3809217854716684,2.338028463163564,2.199448159349979,2.425748926885809,2.4211094110325995,2.2047176882826753,1.8613623671265336,2.213916552835695,1.8782045250138788,2.354350120629892,2.8445166206407793,2.2295770916475335,2.915553500923979,2.8770157629673183,2.954515930415926,2.0114222285563
2.236631633457253,2.2321604893480074,2.2459250344004746,2.0277945311301986,2.1327134607843004,1.9529790563922356,2.7259139310677107,1.8996823969000156,1.9993495581000693,2.493718039577183,2.7088702519278747,2.56587092500582,2.746042588892337,2.5858765789628944,2.667739448183689,2.2827287075679674,2.621704210246981,2.711293873412438,2.6890760925158848,2.2267084378786,2.28094136667709,2.529219824189245,1.9364338206879215,1.8388182039708574,1.7621726541620177,2.1392472685337465,2.3469384403959275,2.0170496242280365,2.325060697434691,2.362016978809544,2.2453800349505872,2.069687221991724
2.6603627607350835,2.5591232438627003,2.6205045273840955,2.4526886913343784,2.5350623134830377,2.447084365062458,2.5225415595273986,2.374863444381645,2.737870334223239,2.1333511062524155,2.868267732712917,2.9348122541492785,3.360015042962896,3.1945628091386657,2.7753610191807185,2.4351964434157334,2.5374105893983576,2.5626018752639994,2.62053055881174,2.327083217795472,2.099770894345894,2.678944346268561,2.065620894661376,2.3801163153439484,1.9817312661850846,2.4251879543133406,2.7780071962426627,2.8543796706622913,2.8482590522874314,2.8887579409961748,2.6012239371460546,2.6212043204795545
