Fp1,AF3,F7,F3,FC1,FC5,T7,C3,CP1,CP5,P7,P3,Pz,PO3,O1,Oz,O2,PO4,P4,P8,CP6,CP2,C4,T8,FC6,FC2,F4,F8,AF4,Fp2,Fz,Cz
1.983215747287778,2.2553572890698828,1.7156132669616897,1.8696035997533502,2.1177106216276984,2.067996678261696,2.1497430371641344,2.0068793233041657,1.8751744657133835,2.3364498657800676,2.1621821541184785,2.162627887281954,2.3118084235458074,2.2108313842040914,1.801556994449344,2.0169093764911974,2.083638506399401,2.3154830873139023,2.0659911006815928,2.2119667278719457,2.1783571515361544,2.1300529494053966,2.1675278429965723,1.796202654820107,1.789227597958643,1.7708721281622362,2.0127576185859675,1.7865834081644714,2.1226659702411412,2.223628816595952,1.8279948679000277,2.303991819906387
2.293512570803235,2.342828033861848,1.1950376575539845,1.7099283307912703,1.8465587066937719,1.7258082783770556,1.7748674844459242,2.1521108002825815,2.2664980940784054,2.172569346916546,2.003903955332136,2.0051969756885843,2.1501425992018133,2.1205809056646565,1.998687246086995,2.0643347604729394,2.4124484491796623,2.0269914852120543,2.1699958512113726,2.1370351331997486,1.8965733651555272,1.9855129851569235,1.9053029272590751,1.8831906574110233,1.9605302525563792,2.3792637303324704,2.2837449736346587,1.9727053120028069,2.3780803088349414,2.349696925035646,2.253067042381919,2.051258492951108
2.0810731048896933,1.911995729008389,1.2781590465633528,2.0657107086771087,1.9791429763684287,1.4291680248486085,1.7278886872184462,1.7015819528216476,1.932429945899476,1.961300790154116,1.9548536646380523,2.151448857932168,2.4442139811994568,2.4787863145858955,2.269980748987008,2.3215719031692,2.333562770558078,2.125461581908627,1.9558347910888627,2.070387685384423,1.6979933275305454,1.7434225234239682,2.00901423506346,2.10900713280732,2.07513792019429,2.362345786081935,2.3959581302896336,2.080456841265972,2.3423101429321536,2.324580611461574,2.0090405585046387,1.8470212053469648
2.3619117742030062,1.963830684187302,1.9273482815064096,2.0293771623470827,2.4051281161094633,2.502525665882094,1.9829341800467426,2.231235076490837,2.516270788141868,2.1149844708256618,2.009545176796804,2.405086654085102,2.320672022736532,2.025402762452433,1.9581288086857402,1.7742791399364517,2.270927376581375,2.291748699327724,2.3330765123880424,2.2822372434956146,2.305376018141164,2.2076995830905397,2.398105105305031,2.2079428567204737,2.2277595442295337,2.6349254749846263,2.200847021816315,1.881968301683636,2.3083885518824045,2.431340528403065,2.578389026528686,2.2435163158672187
1.6948310229550123,1.8737203073918987,1.715102245166989,1.8546894826745786,2.026547955220136,1.6914717258753873,2.208916756762486,2.128337651954756,1.97852964195532,2.279036056980756,1.945744873838631,2.2888898050780613,2.2267619668909604,2.365146207850695,2.273881905678006,2.180480353814766,1.9674982536084482,2.463817331104419,1.857646187574769,2.291158814460495,1.853075412176079,1.8925366865028086,2.0459950703823595,1.3326061522520007,1.52186006053279,1.840447943483056,1.7472649038239438,1.8041564621799888,2.038830964278057,2.054108958236793,1.9029651130496519,2.2604518120941632
2.095443751250676,1.6910995270263198,1.2204919931788611,1.6595482949789346,1.9033482163299362,1.8401112643789093,1.7885986732592714,2.145730431502215,2.337250809774191,2.3861398341715407,2.1838561570437838,2.375097078886661,2.245407018767419,2.080731850230574,2.201774595993232,2.153299083297673,2.189955563304686,2.1872450536239425,2.3235811548618917,2.307388194209888,1.6754294265842973,2.600014210908574,2.2378902611126166,1.8077798360763477,2.1828708104710604,2.4052025687175163,2.4157006591828982,1.85623085605067,2.3679931706329778,2.3245776955440385,2.1890633536293436,2.274523989721529
1.875331682739919,2.2990611370469423,1.7052590356305113,2.153195567085082,2.389156671740649,2.173773039372515,1.6523787619582002,1.9862027676639886,2.0678986337755454,2.349021795040299,1.902930168929739,2.1919739602884323,2.1267869451995653,1.9431594937869905,1.977683992164816,2.0384409686394926,2.098110003947281,2.184513715054656,2.2267729155276177,1.6968133257281897,1.7718222555094756,2.0735345796812275,1.9255306365099805,1.9001182346655547,1.711782627108351,2.300394273480926,2.089137252468778,2.0223360339261087,2.130885650274096,2.1294307171338986,2.4583918288686304,2.2745664338472085
2.2600275891813446,2.501509663569643,1.4872741885810457,2.5235175885115657,2.8756186227821594,2.2238548664178057,1.9681298850533104,2.410032718522474,2.1150146708417683,2.826421371771771,2.0798978415232763,2.482664539602406,2.3621407983958806,2.5055339793248277,2.5434490150680684,2.408790856174241,2.9289750859269206,2.622263587779703,2.402425570507458,2.4040346405223336,2.3837904333841373,2.8913637609084537,2.3462981501064335,2.3160539140927696,1.942616878020618,2.3326707666045627,2.3584116159348465,1.812687102520222,2.9801611542991724,2.987933045707245,2.7289606106584,2.8087546598859414
2.6718323313462,2.7194908250995,2.5131588310474156,2.80063130434517,2.386974407832798,2.833840604473685,2.972188948694139,2.2542010852977477,2.3562917860089825,2.151565915155011,2.2352169251269456,2.6783470014143864,2.8930979793839353,2.6891806265203106,2.413368485137198,1.9299243762115366,1.8154397908845086,1.980064928643484,3.111350891394495,2.7575430653722712,2.4059916158403616,2.921838590932572,2.3247944236726554,3.2393285784620605,2.870416818642903,2.8496028405060945,2.882364761528581,2.5020147110470767,2.7077916537515843,2.7275882339701067,2.5476537895117386,2.5483104357709316
2.1344770883411326,1.864271022034183,1.9851897173216164,1.9212099352076815,2.0920780363875706,2.460194333047551,2.1569343906550658,2.4558315652644684,2.1419439659969903,2.498749495321416,2.0675258609359,2.2799278914697165,2.5717903924620287,2.483157560412178,2.5381544652958214,2.302660931611241,2.207631423852593,2.3648545966660217,2.707386190969527,2.0652779613348287,2.14253167015182,2.5626686626098247,2.378503110350598,2.0914837298143096,1.9406853776088702,2.72931324470983,2.3042602391883786,1.644420613347476,2.680772993499811,2.602009921857515,2.5649958347150426,2.469384788825605
2.3934090560065764,2.3010107788854346,2.1407898684615816,2.1303065956764273,2.4502116296536145,2.3942398327716203,1.7576127432650592,2.6412033096418983,2.483155892248994,2.2787006307309006,1.7932282129247574,2.0195177156369364,2.261856673257593,2.4742760237532946,2.409578582705229,2.526831688571102,2.541179031579752,2.6295560643493783,2.36821277037613,1.9354896999597853,1.9684639299709759,2.237653926696096,2.124526995367716,2.108326150310933,2.039314549410334,2.7576967572862685,2.2078781131806937,2.126090298452601,2.6684452290989666,2.606604768281628,2.6794163280475884,2.538974461573899
1.4570894782870556,1.9220637030999501,2.049232573271367,1.8674959244303706,1.4094970685667974,2.130590014213799,1.8196410657163864,2.1100231234045568,1.7025893490589539,1.657269893821767,1.5251828380310875,2.3710950167439764,1.8646826234677418,2.233775956153379,2.3209544840952674,2.199424227494209,2.194935934730771,2.1961226557633995,2.0441136007973726,2.0389347157633018,2.422442217896854,2.135906657365679,1.8096544019150098,2.165744779084114,1.7485996953179257,2.075176422046307,2.021474333281185,1.7934142797316506,2.3899035175977725,2.426700668666868,1.978986739315628,1.9015210592265352
1.835754241893858,2.1969822253028073,1.3101449664108868,1.9307845336392564,2.129534067244035,1.8688496538087358,1.7753483646459858,2.297412463497718,2.0337887062156454,2.389824347305251,1.8475930763298964,2.5413991555350264,2.411803514888874,2.1926875661438476,2.06948917977772,2.0046430840548517,2.279442634046415,2.1194577414100433,2.1925466137922607,2.0495968658819987,2.3966699684163846,2.656331964355373,2.312909158653036,2.217222520173908,2.4792848014719726,2.584613464303453,2.535076063838541,1.8490174291466128,2.8413253901620674,2.910001538224655,2.4574340137116164,2.8080291773382764
2.3090164225082184,2.303463824874937,1.9533566568159988,1.9575113068099046,2.2567050464331064,1.859273078599992,1.8645317374383015,2.21952929331106,2.1365722038835213,2.5036651362719624,2.3526236159441396,2.792720433552944,2.423073777961706,2.4203174739836273,2.161045860923702,2.3586602160364127,2.282480002673691,2.0970560594875707,2.7555998032958136,2.20268490874796,2.2173624686698337,1.9945404261217892,2.1443685585957377,2.178103948806788,2.3733830643637686,2.6293020796454543,2.398709172520354,2.152171673972081,2.8007835458645087,2.739149572938069,2.8034891558762634,2.5519284570560643
2.2865034021241026,2.4366112578610823,1.7762799639451736,1.7531723185272734,2.038339083196359,2.009515218449799,1.609516193625997,2.279200120342494,2.303643315459172,2.4927934790974744,1.7525440773932193,2.4309117430214116,2.2956867752880363,2.4845401236962403,2.416802808776121,2.336609317403641,2.258590072270193,2.480370781607688,2.143862968510349,1.7904130320033076,2.0658056844649098,2.2750210078472395,1.8342587738865452,2.145055089926591,1.5282145520431434,2.582274047114801,2.5546796654427917,1.7116629666082033,2.7383786335650457,2.658956316848074,2.370925206454749,2.791030509846205
1.8269874712286918,1.8265284066508785,1.7109484453698351,1.4665289533702661,2.0872533432244205,2.3192465836537486,1.9681590188073814,2.576359511764579,1.9370284288359603,2.6218693219527665,1.6428592125145403,2.1773290606406936,1.977941664514577,2.1522168347999573,1.6246941847456613,1.765621429493422,2.043778933713866,1.6294317051793805,1.9725722051192838,2.014757896806091,2.809501398706008,2.0987940105100487,1.7988101161626089,2.012817499593113,2.0794898962163733,2.6157220504877903,2.428544512651351,1.8276248382751077,2.3884799218984796,2.244248657456813,2.232759245330523,2.2588237296310503
2.0435345349909073,1.9406332991484132,1.8943073395116576,1.715735734732263,2.0088327645168182,2.2972961417386797,1.9955381716760627,2.4490844499016102,2.406571911022594,2.6949631205994224,1.9463040362278792,2.9949175922894096,2.682587789938556,2.2975459247742815,2.0628490356469023,1.869901235526565,2.128381467945702,2.233841299211568,2.2681430165607432,1.4915764524370925,2.199722595368639,2.336751842534716,2.7394300173137314,1.9934590140389725,2.384348201241763,2.086390701129943,1.948075889567895,2.0753230503298927,2.400351613923399,2.49131677968737,2.02416059064653,2.159855215801619
2.8826964303752023,3.2360399536605366,2.122576909405314,3.0958608084854746,2.0327292726208475,2.7031234321357056,2.7097227481006536,2.4793029906164574,2.6478782307749493,2.6997430709262242,3.0157024641912282,2.9292634442888335,3.172938192996302,3.1362225043097784,3.0933577703418718,2.200454126832138,2.1458554453381526,2.5758384093617135,3.1521468079567687,2.772945775704483,2.6925538331918295,3.129484734991958,2.5423941767821585,2.7735534544371934,2.7903697685242066,3.0711409572071076,3.092391610982591,2.717389218794812,3.329319451916028,3.2389182415462443,3.25907388959201,2.467004530695245
2.1133090326741524,2.4666434338043244,2.0929879927213095,2.3189694837925443,2.459687305285003,2.0781314807074116,2.2077858696773696,2.6926940090587075,2.242012043425824,2.1912748037113667,2.6492336308701034,3.261695517435808,2.3769043588564784,1.7839373632406796,2.8597028302960252,2.660390950658776,3.363736950021893,3.1001490070846995,2.3375686957917208,2.3241235695420936,2.57193447178693,2.63560082456705,2.831449522261784,2.693990646770513,2.31148617075745,2.6691819981495364,2.4070580205123293,2.154890063707131,2.5222622230138363,2.549266428278766,2.577399838695894,2.4645535386964887
2.7184202666472936,2.411126053071038,2.4483852899797083,2.166963458267651,1.8048058821832391,2.111119052936167,2.440757319807933,1.9434941370724084,2.5458900170944294,2.8165984070814125,1.847638751511249,3.1801969545274207,2.3192569258517244,3.0248603100551463,2.565492525782799,2.1425092838459676,2.0241103470263955,2.237817916744175,3.368900622712465,2.2291568993791437,2.5658496111578026,3.4288858619388707,2.3933758014764246,2.5944556212201473,2.2225729739362508,2.3698937205039545,2.4788286486073408,2.4093832364563434,2.5990331449776782,2.648189038513772,2.208060608107276,2.0671346982545407
2.151381612832952,2.2147100500183385,1.5380198209997527,1.9724907625315602,2.1349552181786984,1.9560912319570116,2.1444114739360547,2.05543142830339,1.9176977124151289,3.1443774596014724,2.2831986949103538,2.3253248601852023,1.8723432518424883,2.530239887562163,1.8983980612229872,1.9246140379869856,1.974383459704805,2.3325969231734707,1.8185695141572458,2.16916763528624,1.9869973238448313,2.0020209970923313,2.1034098821546254,2.105350308743064,2.276252046364554,2.2111567073426523,2.159514870442653,1.9654620489693477,1.8963314299142593,1.9168900777850217,2.147645317582172,1.9617623565336124
2.5968714040838634,2.5087529623977294,2.5351303433722205,2.80799498148665,2.4025831867965968,2.7965537867553145,2.506823070316002,2.4989458884988696,2.3845861628588154,2.90187098823145,3.233368332196127,2.8723097579703034,3.0598338135057026,2.1613820376022295,2.592758553936038,2.5668414922262084,2.7216207921200435,2.7716572410108404,2.0786411591163336,2.9539753695411206,2.4095845295169256,2.3397540283565204,2.1010094101704304,2.7534865954064367,2.5720479479668628,2.393790970506329,2.471008960641827,2.270798726965669,2.320319801790554,2.317073622147843,2.667038783540893,1.9734817331009866
2.2184370662154795,2.5532896637001254,2.107792714184755,2.2319123552750852,2.8505872643676815,1.9774323292803053,2.17145289619554,3.2551096075935457,2.3323275815331583,3.165070275778394,2.4599027975605066,2.6851228405781553,1.9311265129675077,1.6904814016830367,2.7230352555767197,2.0872885434642314,2.1452171729236964,2.74565746364304,3.4062535841884234,2.1457399410395124,2.0779136289159568,2.260619139652228,2.3522848291411265,2.6910448377480747,2.6042825458686396,3.074079781386508,2.9244980381255763,2.3477882972212334,2.6639419789999743,2.71905034541256,2.8659202823491716,2.1905093620284064
1.9974942386378993,2.195813976894974,2.2011042676756576,2.3442327472068696,2.8825031194764525,2.607071839210064,2.0629832907189605,2.0518114884677967,1.4605550545504966,2.1929148964863487,3.6460484795527988,3.1224176199301277,0.9721842066692129,2.5454288531418436,2.0393383253128237,2.747319593547689,2.4056674553762014,2.1875901063613408,3.415390672686969,2.452934628961876,3.1519701135907168,1.979208758080667,3.3241023373931027,2.4256011234584727,2.397567231456415,2.2415643146322557,1.9776210228393205,1.988582422807561,2.182988204361413,2.182086521631911,2.1510599891918836,1.8433036971029204
2.7225572613673714,3.072459162238071,2.863521693643091,2.9764151371941563,2.77315515198225,2.7862277830862716,2.7648306387489,2.6946539490965247,2.354993350959456,2.6000102900680497,2.328105967160089,2.2674115112841027,2.566398197179839,2.257040922559515,2.076223896810458,3.107817938470191,2.984574120965357,1.6538679058036518,3.1509835096975074,3.0955972110997054,2.848699914050835,2.527282401925389,3.0152039553247376,2.701648537933534,2.5212753368516676,2.7959628564422436,2.959652091201434,2.1963377757129847,2.8536396118745238,2.8975386133924306,2.9480020517070478,2.329639040376257
3.2033159845775927,3.7440359599570368,2.8590651226194113,3.788350458854911,2.533750855922313,3.6550440645082207,3.4258773398387206,3.0967883022670204,2.577367672789526,2.7495365215210783,2.1613229875059594,2.9276159829908384,3.53569057819556,3.4738042670651526,2.200373748509645,2.8977769778082147,3.0080756133690687,2.9008484055090853,3.4433030632563035,3.275736463635826,3.2814230607575796,3.478010154841808,3.2139320211708187,2.6711307530830277,2.762797351141204,2.931581850438448,3.32151211415337,2.6407333487067626,3.3830011953906296,3.3718097387731376,3.085430389117922,2.4311009640878765
2.4013634606823855,2.0951258977892464,2.4166840372916982,2.561869329521694,2.5497466943821907,2.5999901721305343,1.965676638042495,2.899149396719932,1.728564093439728,2.4433194558415035,2.533643862319742,2.3726956869048745,1.864256953290852,2.4806423082004447,2.1127880894801225,2.1924203693925954,2.3388508552818896,2.3858943034086755,3.0676628093834277,2.4843601046471053,2.3057004082299173,2.919529764438866,2.1685802876719196,2.5172685708145894,2.6182776689680036,2.157946601800657,2.213288583787538,2.337213974868617,2.274574522139724,2.2584058887493046,1.8641388828942982,2.992763689907891
2.1225982292485153,2.1594158264038423,1.5287258073885701,2.190316586079723,2.1635834236358122,2.479712867480625,1.8178084011352738,2.8461565089478587,2.3674860135423854,2.631341145727867,2.1079286530484227,2.506184131376534,2.227091300804535,2.212806980344934,2.04183068030314,2.111736084612736,1.9944055136274637,2.313577364829026,2.3353747222967782,1.8736642634755898,2.9546294303210705,2.202974706926731,2.091329883997214,2.0065910928412625,2.118147988412366,2.6522672671341323,2.6399237406182654,2.43169083472091,2.6836153501933895,2.53810934784444,2.560286251865596,2.244322816971807
2.3268950482464796,2.469661298689433,1.629747752058867,2.1748923606407837,2.141260203142248,2.240412559814934,2.1835108831153276,2.61031517332352,2.1117076631736795,2.5877622114444025,1.9284120131448383,2.3100846723655,2.043166019168756,1.9447664854587925,2.269985271530156,2.178672891603184,2.6361115672388706,2.3155017899055483,2.6299070867122034,2.143453285009084,2.4115322131301022,2.362767644184814,2.165828376263393,2.3495744454311627,2.36636169849584,2.4685656349999494,2.157343312964884,2.140497260745825,2.2298143660743275,2.1479133148536405,2.203771117122743,2.735251087155357
1.9619591266517598,1.947718363185904,1.7848479437080422,1.793630645373576,2.158511592230493,1.8484424350889823,1.5664505410355125,1.9856806474004243,2.383545399237284,2.1244323133648852,2.230460301025165,2.2739563160716485,1.9921270520504621,2.16536419703696,2.1601230317828715,2.180054977790301,2.0907081706373467,2.633237563526689,2.5023078859271246,2.01950335323739,2.041891295057843,2.077843434926429,1.979865239998033,2.1338477574064245,2.0691821001501225,2.157850028682143,1.8878349496500892,2.126444067289307,1.9431650294997596,1.9484651333170677,2.3163623193697527,2.504296182625193
3.061237553590913,3.1279607766776047,3.016181965350234,3.501028659132884,3.014211191052141,3.39800194719029,3.407179055854129,3.2142161901261534,1.9665940439661824,3.168899731992536,2.5792302172559913,1.9185433436120836,2.295139943827152,2.984195015529267,2.9226494052441856,2.964154298711251,3.3565755965786543,2.0803249716814523,3.2316077486561157,2.9586951635306717,2.2894168499088225,4.022175662301409,2.215861956878159,3.318840473919107,3.205863917493751,3.147578145239101,3.4488075213034888,2.3198077578680016,3.183487500236219,3.155054010284618,3.5252535522691595,2.0025917634995727
1.5320937659659881,1.52271716805648,1.1026448354151095,1.514419669280379,1.9871718861646996,1.7432258521330586,1.6409436631254788,2.589187298631944,1.870585665388692,2.16900547361021,1.62268243975912,1.643695768263808,1.5075461457576955,1.636842938546346,1.6145818065319923,1.9342115141638243,2.506826118523378,2.3227993904811677,1.6182707738500786,1.6204050281555662,2.686422293085299,1.9013902149394897,1.9681094660769793,2.0153369286955907,1.8393622723399339,2.732477078998091,2.036318872222634,1.4418274840632683,1.8273304397555863,1.7944344738515334,1.6276746491144611,2.349188839184353
1.9603196096736304,2.175505599041721,1.7229197294218506,2.041629841540979,1.9841745292514754,2.233151249748301,2.152002047260723,2.5037779948183,2.8948582296597754,2.436263133147607,2.2328766595039573,3.4475361095519514,2.560516616029297,3.3026684630635694,2.3529781181542444,2.8886790635791906,2.8784664796733628,2.1977029556548784,2.831777375673321,2.677955012642617,2.6620201977417,3.289177623929634,1.976187786144387,2.5257982155837473,2.5345274763403904,2.681935388425556,2.9096165576504274,2.0073472155421497,2.7612374680044547,2.782692363337679,2.8368246222450684,2.481848378927711
2.0016516490864276,2.287366116977894,1.2057492674998034,2.0132349635710614,2.0465667430550396,2.2807462871252406,1.6757620300521376,2.3800546752501357,1.97595341181077,2.4110397525470533,1.9324766790507026,2.251177918831325,2.025348605931908,2.380418407356803,2.200260035832273,2.0355436168106125,2.046981755280744,2.146811054863102,2.094748446973287,2.0246629362784616,3.1758683974038604,1.9102015087773687,2.332914075452961,2.3369890731536467,1.9777084731691512,2.5769805330703024,2.3253309258883554,2.0245068345178465,2.361584320592308,2.322629839844598,2.29777091221812,2.333543553076386
2.3505447292069164,1.731123101594153,1.353375093622006,1.7862391504466226,3.2379264564703147,2.191695912241653,2.5712173922976675,2.8296632536410082,2.406847353612656,2.457551922634754,2.5666695003375373,2.4405354999572078,2.407405288208925,2.604482339932895,2.0933334161730994,2.0795057932625207,3.033872005192336,2.7252085877031966,2.460527485477004,2.196970766058784,2.351143139480245,2.6588816774660087,2.0994443722556,2.085077533957201,2.017335842813653,2.5835201390504983,2.6008797489918525,1.998990130526316,2.397878947802854,2.429684896748219,2.3025324567210337,2.456213129358745
