Fp1,AF3,F7,F3,FC1,FC5,T7,C3,CP1,CP5,P7,P3,Pz,PO3,O1,Oz,O2,PO4,P4,P8,CP6,CP2,C4,T8,FC6,FC2,F4,F8,AF4,Fp2,Fz,Cz
2.1511324939300005,2.3335989177230565,1.3868533387839779,2.2114571343489016,2.52482105982334,2.359664404383489,2.466746457557011,2.0931213207031583,2.1475482616002406,2.2392567706539634,2.085472093984196,2.3170407765410332,2.3264254467039662,2.445043059562516,2.438041752411362,1.929726073048644,1.9197344062636135,1.9537638286164019,2.4783937721928604,2.134010994364692,2.0505335273037275,2.2172455349243694,2.3837479885112383,2.3865677574465076,2.008324979150404,2.1886755405332057,2.0211102230352007,1.2302921701197531,2.60663281781064,2.2475945032860922,2.4929538288115887,2.334236083812013
1.6409158801348471,2.0519012722354764,1.1668140349865461,2.3151030702080337,2.083294905206851,1.8959980418610336,2.23344253485481,1.8492036174210489,2.114423962648617,2.1917119702161334,2.0783783997542624,2.267044822845575,2.51460223719138,2.182240222964942,2.1971475558918767,1.6420978972082882,1.6623726666266654,1.720731578176741,1.913923977296027,1.832669049322278,1.9606808029083092,2.8744404915930613,2.2318733809675564,2.3518673052119214,2.3541145746648593,2.2101698677872967,2.084403912529954,1.695940758128173,1.965190609382528,1.942670911267048,2.1398653285127507,2.3991782729749005
2.0174893775780083,2.070134022911208,1.1742687914138328,1.990799769221073,2.2542257499827922,1.7129483734402946,2.2427754247173164,1.57103742869186,1.8564658342027895,2.4339056742769922,2.130148702085862,2.0980001203516334,2.0243275544300685,2.4347234042241985,2.4197599618496946,2.2922172608545757,2.2633912771545592,2.271444250246201,2.239500530523124,1.9154440387467295,1.9257570304623508,2.068415264230693,1.884853560301257,1.8827932021696916,1.6161634309147466,2.44313995299997,1.9032040287842005,0.9624953378852052,2.150478136461544,2.1959013457789736,2.315511610963271,2.0696434059543627
2.232824798029848,2.408849199755911,1.2675203335397225,1.9838942970391873,1.9523991977817656,1.8212515153679885,1.9438957601649887,1.7332191448827161,2.1401957135064604,1.745783133388575,1.857523578281774,1.98039362534067,2.453146568594032,2.3703247752425995,2.352099790899599,1.944071353748006,2.007808405509104,2.0687278242512317,1.9965433731771003,1.9525446882983448,2.146730601617312,2.2264277113698028,1.972428611460892,1.7519236815349144,1.515163046957669,2.187922784417116,1.8190331077777793,1.1651465463692023,2.4423950092013604,2.4802734563306243,2.504571106768905,1.9498603297560775
2.1712925221460115,2.2011294961880745,1.506526852500331,1.8515091622333757,2.2181057074314112,1.6264339867965671,2.121592609081515,1.976216412815091,1.8933547070616386,2.211581132905997,1.9419943521568566,2.086412879396577,2.1186639303278447,2.4359652760719586,2.439253893604695,1.8621654278144433,1.8853929579500428,1.9064825167446466,1.743108700935807,1.7594800669054114,2.2511786546788506,1.8232498987352614,1.868899997416406,2.062102508900032,1.771202249837343,2.1136919922624373,1.9585254430112344,1.16494803270438,2.172488661928132,2.3165248179521014,2.0493705203061046,1.9301830806974625
2.2604920063281355,2.347213597486345,1.360356218383102,1.819977842619717,2.351709071633349,1.8934512534494599,2.01014111416763,2.1650179554295157,1.984579344116418,2.1665014558626927,2.30799697237905,2.526901241099759,2.0709164576327033,2.52114251601602,2.48911562859503,1.645861979887673,1.6594284031156294,1.7104696858293311,1.8264507948045152,2.01249321251454,1.9510157996996496,2.263984892190427,1.5388334574999656,2.26791887485343,2.1661840945324506,2.5187180708117207,1.8709372538235487,1.721510881364934,2.7191777453471038,2.6657566168665228,2.631283324595984,2.1397277931097007
2.472588020694566,2.2796300527165356,1.3283348741170649,2.109555890829246,2.316474214120258,1.7128442265686767,1.448205184649815,2.025827980025082,2.3363737708338066,1.9359343834696598,1.661363164165755,1.902117587335972,2.505558341957681,2.074963693882644,2.081051772038835,1.6886710062259302,1.7106336619422413,1.8840900107488427,1.9859263383831816,2.084583799595878,2.1363843491232046,2.4003822912624746,2.2406275623778327,1.8958475965342005,1.7352540779440144,2.1623208339297735,2.108080243152446,1.4714215259574255,2.200015399156015,2.2890971235652566,2.4704833439259684,2.320862175067518
2.095881596084197,2.5605884825805454,1.8183102757301828,2.212578341839237,2.3084115412041117,2.041880155695549,1.5517704899344191,1.7309279705457656,2.2024018668654977,1.8075211985874384,2.0674926553714563,2.1445047889612594,2.229904325964164,2.276758235223783,2.2940914387651983,2.0321386282801397,2.047159808470507,2.068561269431664,2.324623051056803,2.0517146968775397,1.8455011931230134,2.130766858499357,1.470431059201219,1.6024971297410135,1.6663097321352447,2.107988971479476,2.112642341623299,1.6209564476166065,2.271310994864085,2.134906691901337,2.5398854742180172,2.0750270747879758
2.6019238941097407,2.630225681709219,1.7332914159771278,1.934758133661509,2.3015699504111087,2.503170802831958,2.2710635576899256,2.125892370521008,2.3063074058366606,2.258287505553902,1.8259880499664183,2.1252699288051384,1.9283226681917776,2.2853914463504057,2.301417584792856,2.1147867994921232,2.1327905567742342,2.2438564105815746,2.6282359734406335,2.4151975959541723,2.31829922863672,2.3862697632892043,2.280120662350596,2.1622480015992873,2.3315033749618386,2.4081497382539685,2.216964661765977,1.4263251018354692,2.3900166912275806,2.428504898066928,2.086686512621174,2.2435606817829967
2.394075249857215,2.4705769353510685,1.476587463115039,1.9058842720431168,2.0354047049414805,1.9931672250311137,2.1145857040558735,1.5487423723954759,1.991693959789403,1.7745350473303774,1.7410902742376089,1.7250136581402742,2.106308892866673,2.0027509136612904,2.0030238959909537,1.5216946092069357,1.5256174728324468,1.5181046588424159,1.8009649370953078,1.5565012330323005,1.9736737958204704,1.9318095574815712,1.5648254670822457,2.080437031001719,1.7375539102862059,2.208701724260977,1.808642941857433,1.3304320905391007,2.2786688281128296,2.3644003445250696,1.9039244427265694,2.215168889103425
2.330381909929547,2.6009743026415766,1.2379690232334986,2.1658720759567647,2.1951189904486887,2.238819229067489,2.220279527577293,2.0259294947295916,2.1485537232732637,1.9006545391543186,1.9088470720118282,1.6814836064021512,2.274518530654988,2.2947347498800266,2.421908667121124,1.7329762891806715,1.753210639041383,1.9187807487966513,1.8104861819031117,1.7031238245971485,1.9161828067856361,2.3415199118190126,1.7976419579290597,2.2783512427132746,1.6248208592682212,1.9206548380508937,1.9594289930696096,0.843747242027184,2.124710026944197,2.0729134004507466,1.9557482611049317,2.2767841877364856
2.311338868511479,2.182447047695604,1.514538704268189,2.1149457678969648,2.36482173290446,1.902963981631258,2.3661733133223826,1.802467388438078,2.0232610495726053,1.9517321737018125,1.8979029300267212,2.1100600479887532,2.363658184880783,2.1249605713366146,2.1484444480055096,2.0629631655825813,2.077944952714223,2.0428972046301155,2.1098357198727564,1.9475340202919844,1.901378092619824,2.531052684588481,2.236249892955302,2.0905512367616095,2.2879283415933727,2.2891454895590853,2.2463932697014286,1.5461562182570145,2.596223872072773,2.5314353305889528,2.2468725781958514,2.4325230796806485
2.0401968153186214,2.4611419120493214,1.6619286340784793,2.078714234233619,1.7358315062619387,1.8836698549958846,1.9371305141455595,1.8669659367096205,2.089250695785901,1.7004203782348648,1.7778635210404656,2.1067854446361327,2.4996338039039956,1.9058014386315871,1.8532878612775079,1.246857837990775,1.2766385219548766,1.3914374640161293,2.252142778627207,1.8834906520657384,1.8973347605061446,2.200978660096909,1.96940274325656,1.6992981269401541,2.017174212098648,2.2722935124479124,1.7719678853773952,1.722502272566228,2.1290365697307294,2.039757833065411,2.367121140971152,2.045487905518896
2.022298640244917,2.2138499143315826,1.2510845344452257,2.0398947987179454,2.5501327124650977,1.7149704259306928,1.6054763224232584,1.6680375722224001,1.7993975439577183,2.032136657360108,1.6741697917466678,1.985592886197032,2.163471684996156,2.2322394037036486,2.2267413683824766,2.252354606673576,2.2266609329835134,2.2198416715771097,2.0339601207347124,2.0972044828760037,2.0177314984458437,2.2611139380973393,1.987479788239978,2.101732050654325,1.8870945747976116,2.1893403942072673,1.7913588796646842,1.2028098446240756,2.555248222785652,2.189770384265323,2.709283890629124,1.8347423832931193
2.2421294070357574,2.610455827898188,2.0327805498637916,2.310911470258056,2.9172762183970993,2.6376697232613506,1.9608639765780438,1.52096402098559,2.2571930781498515,1.8555166500760485,2.195315256649039,2.1342872812771487,2.7348007969153016,2.372613478504544,2.375904265729486,1.7244820709839677,1.733359782431014,1.8406053342916318,2.1291475707053684,2.2158019530680413,2.1741867415142564,2.2836970679478124,1.8388335316937534,2.077029535599593,2.3692573784661697,2.7413065184457746,1.887380275506598,1.2318139728514401,2.1032628837147014,2.6025903083455497,2.764894100878213,2.3702429502830125
2.4685131477052153,2.5242466043854277,1.4542934352790555,2.1981705843427126,2.3916575189646596,1.7342600494499887,1.5788874079805533,1.7983728356637485,2.1944501346229774,1.820061972395332,1.7247930507732798,2.0195009385037097,2.2259607441416334,2.0588401186528458,2.0520566177511137,2.0983593942417675,2.101898057026604,2.116723169353179,2.2015844435318015,2.14435985764525,1.8552358780958818,2.0251889278031068,1.9731545918536644,2.1980261992315504,2.4237658294483544,2.1252953435255186,2.048443618662608,0.9528824073944012,2.645721046507662,2.472060784778684,2.6558918074944033,2.378317785192574
2.1678222256761375,1.8810579772566052,1.5655690691494626,1.9927751713182558,2.462766283899606,1.7290312021722438,1.4665309640816786,2.302270447228512,2.436302021872368,1.8799040345692062,1.5196469202905922,1.8189472209487432,2.194307830110586,2.0655855782401416,2.0484009826663727,1.5270256730870149,1.5269369591471134,1.4760335389717305,2.08550064188283,1.7399996130566058,2.0131826377089235,2.339462665655787,1.8504669711255335,2.2451445377248227,1.866865107170834,2.5336818066803874,1.6751825428037614,1.7831679547619745,2.131129947707379,2.0475604820940245,2.462123304411649,2.4735203610521146
2.1624937050376465,2.3519904562728073,2.1700245414014607,1.9842232446008703,1.9430269173628292,2.248917955013403,1.8564024221384234,2.3398864112014777,2.0751816680217625,2.0917306703558065,1.6778033267479662,2.1148389209784,2.470949219617056,2.1369076286139745,2.137295281997176,1.8248590791965715,1.825624853293343,1.870648088076694,2.1394474072347056,1.9737095893538141,1.9062371635523216,2.238081542952583,2.1512330545195537,2.097770192929434,2.6558801438721003,2.2037427926835886,1.7705428706346555,2.0920923528836797,2.1159970959357803,2.192216840572269,2.058372593091676,2.162439798658156
2.149728652180705,2.165691354327312,1.192807107144254,2.1058496933294606,2.539540932832389,2.0113163125621645,1.9732526649266602,1.7806044417991376,1.803161652390564,1.811936915226382,2.0278195565464157,1.9149619761635677,2.0827150734080617,2.1715885152655066,2.1553609255644366,1.715270565062609,1.7329020613448067,1.7782637809423243,2.087260023514238,2.2505930745051517,2.2087340467065237,2.3320393064183675,1.550229627906328,2.172083870297294,1.811520643451806,2.5425500303140236,1.9651338203497024,1.2780435199606255,2.1215390727230146,2.197759320857601,2.380787650241784,1.936710748380752
2.199436422174942,2.613420946477119,1.1294396848993742,2.106772295924118,2.3960478845248305,2.0675828244259638,1.9882368792047889,1.9783122275664689,2.5733559916999393,2.154988995998815,2.1473226363907427,2.0717361706582396,2.356133801813818,2.301778963741952,2.2933947569394717,1.8287186248497,1.8210584227997986,1.7586350588673028,1.9103250848930446,1.9396275295769096,1.562957666241875,2.6259591684449983,1.6644480571423625,1.7275045767285127,2.034929169752166,2.1207574970307763,1.9568946995335785,1.5752586671493316,2.3711393123147575,2.4451989126930442,2.3414602076144893,2.681048553618451
2.5075720493991405,2.4252603216522846,1.8820692204453324,1.909458245606545,2.48030966988069,2.352206645140947,1.5499707804340372,1.9593074664957624,1.8721446558523558,1.999681384850484,1.7193056767156154,2.117861361812239,2.273912503014455,2.0969819341703184,2.0875204506387672,1.5478541969907713,1.5431881913254992,1.6321097062085712,2.483343983398955,2.2305993196423186,2.000494692866365,2.286671207799261,1.769325674442779,2.02278021110544,2.0702404646239323,2.0547810331380565,1.9530285856770715,1.9071831933314918,2.370296093585239,2.219783276743487,2.406853369418202,1.79833362189908
2.189293139666227,2.331015442363102,1.6530898206438216,2.188841398986604,2.2494341388491916,1.869502879243491,1.7121835354180484,2.2349120140019596,2.138903216888182,2.3873510511205724,1.5836389749079967,2.1226059955459005,2.2646865546169073,1.935706563618894,1.9158761434939622,1.8946018207344293,1.8936518236769915,1.870811599171105,2.1324962708253876,2.183505769917336,2.083926383876125,2.1688063217779905,1.8126693714570818,1.4933785820690035,1.583579202762621,2.1777248002110703,2.199356853655612,1.4494447224054317,2.300094729029109,2.3308754293800784,1.9333685672357537,2.2283512588598926
2.6714595373527077,2.248792281272779,3.2656031310343696,2.9400111012890835,2.6867442452503223,2.965355203812197,2.3590153429359386,2.0218885932086548,2.231449012582541,2.2085942218120076,2.621118964148035,2.536970823983252,2.630762831104577,2.5596242764802013,2.5976757735092426,2.471893281443507,2.4168791122487687,2.4566171943888553,2.22775577472823,2.186293037859782,2.496777918441893,2.408535184833227,2.08347256088876,2.41095856141054,2.5419613642891754,2.7237349755766673,2.2616605500196734,1.5175639134179297,2.6984151675693977,2.484488103149773,2.7637297010265027,2.5405015970883973
3.1505433168789603,3.37736797514556,2.99812615311877,3.435251422220212,3.472143995107244,3.2569572185952085,3.012209907823495,3.331555520832742,2.921314695530283,2.137324394080164,2.8692627852490653,3.1890667853700556,3.474401131878813,2.8499823259110837,2.8236960317897646,3.645957622749966,3.576617136057166,3.413311512539043,2.6786302066261203,3.1787724261725616,2.8742199415702716,3.2715016153557324,2.74635405913907,3.0883819930731087,3.1195913498626218,2.711099152062717,3.332830888189945,2.6976937166113135,3.4676145344195457,3.2054815880456573,3.257722783138523,2.804538703607772
2.177475518696832,2.4435417233049717,2.053710917110601,2.149880390691771,1.945469448177431,1.7076461457407772,2.148976998280949,1.9761083183836197,2.114660355296822,2.1415368870897407,1.8022349621331848,2.159142615317714,2.3229841762660164,1.9469124169264653,1.7861431713115004,1.2183780998389133,1.176699901868405,1.1473728667935725,2.014937913058523,2.065954171538571,1.9770403615197507,2.2164249167117163,1.794243686194784,2.051484125165035,1.8059636359900553,1.9492677327733932,2.243756455222806,1.9118589294838373,2.5199304410584653,2.5353561461573646,2.4675181616144095,2.080850991307529
2.7824447491155646,2.7479923880202013,2.5272561790537327,2.646451025368027,2.8115049087865933,2.7678472048776843,2.8254824459522485,2.535774726513514,3.044988501378902,2.475046679298681,2.597448576647005,2.8952029127377332,2.789329180492758,3.0366759068472122,3.0281158851021246,2.557978050319013,2.5458670067815636,2.523625408950208,2.8787847490325467,2.275918973255951,2.6163748279655468,3.521742834719158,1.9070266465121366,2.8995893659597076,2.747253596491166,2.025234238856297,2.4287691293790505,2.8988562794161314,3.0439694823349477,2.78006246492308,2.6088831317480836,2.2411242218131715
3.2244413238250336,3.343878047027631,2.6951946836241993,3.0878944787814566,3.0076803273668866,3.0860891993980566,2.9510300063337067,2.959881200033184,2.7919988233499673,3.2781828543248444,3.2917690089992746,2.6041204363194,2.437772155751038,2.3038147456412528,2.311009483747692,3.247726002035575,3.255248312223295,3.3180198773668272,3.424828954679238,2.7822225829344682,2.9156999196852973,3.693877974005533,3.4105947980839524,2.919208985169063,2.764377234879316,3.077563425232702,3.0365722821514565,2.5855747114071868,3.55277927927626,3.5663780173153765,3.227489892233048,2.5240357072285597
3.2204908962136116,3.553404739688028,2.9510466020413184,3.411937823951895,2.9714977744472977,3.63327630776953,3.4751429840589467,3.1395851488908426,2.4114588761420044,3.3279199330779883,3.4175957716702703,2.8529960053511343,2.705053579102183,3.364816146620753,3.3402618364973238,3.8406580221004374,3.999435941263332,3.8772384750077045,3.208775526035857,3.725832907359498,2.1332084353712912,2.26361740947639,2.2683793622765416,2.091342603562669,2.7932415427892954,2.9843761908025397,2.794840209918469,3.31653567562001,3.3239473628334464,3.056375607607663,3.0126639650125133,2.293463762646851
2.9762401655895445,3.126594941579695,2.8297966135621437,3.023641899328592,2.912882046065119,3.128451015358227,3.1448869876693384,2.570839208232986,2.9294918603851574,2.564086001135251,2.666242554612732,2.7566186429153916,3.277960486314638,3.3851813803831714,3.3836624112341847,2.7908892137968744,2.8209491385115344,2.8454351174090506,2.6261156086229294,2.320030867590634,2.76031484414053,3.4645130547430276,2.3680410567105548,2.8234197426735523,2.9201064460944024,3.181772196877173,2.6793454352315673,2.809632067580044,2.9768175781798694,3.0500917756627466,2.934403687292519,2.067167577499737
2.414899652397368,2.573004742513019,2.5010318162077203,2.585737201036241,2.631248675312758,2.6344109581527175,2.6687169433956717,2.0896866827928715,2.4811915446460477,2.189626552916886,2.242098663053969,2.4503929801180804,2.638843638867644,2.5892137885104294,2.573668584999344,2.792128512120157,2.807937066885376,2.79219767163646,2.261986781585017,2.2625960241697394,2.431942505400708,2.8965416171020015,1.98299130253807,2.5722509640648816,2.561040512989997,2.322832760233474,2.309340397632136,2.0814426650153477,3.1632230041509453,2.6617421962816223,2.538225301720159,2.397655268440865
2.749183583731604,2.7580378637099665,2.8501634259329998,3.052847585536746,3.2157012964608995,2.8970154363247462,2.9592992016098387,2.6980830265275566,2.569123624657566,2.9911978315018706,2.5471475361555096,2.954441115430987,2.5832308101371875,3.2407027745033066,3.2276497286024095,2.4312080452034155,2.4567176510506674,2.373552550486304,2.8584393294229504,2.502945751669408,2.4040370423519755,3.9638300894674297,2.859315407583848,2.40599288366935,2.676128255111969,1.893026096386974,2.978311324043216,2.795450185232427,3.2341267181842177,2.6879745204586296,2.5836444233981597,2.4791271563899575
3.0018528669568028,3.2343788169853234,2.8826799659468567,3.1629831444378986,3.1907668811433236,3.084318699345288,3.0783327434436307,2.449099619139072,2.753707413394576,2.6669653072502966,3.1577001982136057,3.0948221497639055,2.5365637574708475,3.1285734656118107,3.1114511503302347,2.6570865451258325,2.7239166255091565,2.5783727139810755,2.0998190116786897,2.47630369006684,2.5270731984388104,2.6526500864733076,2.7245157703772676,3.110393484873085,3.014271004214687,2.8571643319906928,2.4740683814381255,3.1370199864249915,3.3215722639273375,2.928950022181979,2.7882929250274335,3.090035223724231
