Fp1,AF3,F7,F3,FC1,FC5,T7,C3,CP1,CP5,P7,P3,Pz,PO3,O1,Oz,O2,PO4,P4,P8,CP6,CP2,C4,T8,FC6,FC2,F4,F8,AF4,Fp2,Fz,Cz
0.9872384907876698,0.9854289337300557,0.984833243224901,0.9722761580638145,0.9419502495245233,0.984436077841242,0.9424204422102577,0.9865984663746294,0.9622682188684728,0.9744436519511502,0.9790141679234495,0.9804025798963271,0.9586150871801876,0.9898410319631156,0.9774482245139664,0.9895773333337334,0.982554067304589,0.967595109186464,0.9804475146324226,0.9690324580478941,0.9796778214611176,0.9838511562074668,0.9791277720876295,0.976766336135024,0.980460179889798,0.982547857041308,0.9856348260337506,0.9683822665440233,0.9778890220071895,0.9671592913785703,0.991412008477498,0.9865340150241529
0.9803311368150469,0.9835701376149054,0.9825797128393616,0.9795344407273291,0.9779767778252232,0.9762192905119628,0.9817293352545987,0.9860870232275739,0.9846344428762053,0.9769744625481716,0.984943507145119,0.9810315495999239,0.978491460581041,0.9814346021901029,0.9730124202109797,0.9704852427282693,0.9821279342462531,0.9786037527907563,0.9765618656575499,0.9877660397492011,0.9827037658230253,0.9803710381534587,0.9687581686577983,0.9652878637845036,0.978681221917917,0.9803535339619528,0.9748507270383862,0.9573908747101947,0.9705649022472636,0.9682389548999105,0.9893826887870775,0.9794989528565017
0.9756431432446699,0.9752990342371767,0.9789507275799005,0.9751711516000786,0.9845642826862141,0.978669808603758,0.9753146809480499,0.9685120873440315,0.9824259629282304,0.9876069229377895,0.9700051653186823,0.983156874801323,0.9817784306676415,0.9765572876499956,0.9789971446893043,0.9737960645687967,0.9766949239552556,0.9789611150610831,0.9496274367649967,0.989624213766766,0.973635467813835,0.9579388767476189,0.9759765017255857,0.9873893885011176,0.9758774485174386,0.9873094126348925,0.9458822669128367,0.9795975343551114,0.9721751420752893,0.9292350710313644,0.986099150477885,0.9759555184931223
0.991274137545516,0.9897829469597154,0.9712315588784342,0.9732083795864884,0.9812714021057367,0.9720290442190286,0.9621762992403594,0.9459415544038934,0.9783575842671285,0.9808225056623745,0.9820802408722195,0.9919149889730708,0.9731090079932915,0.9801870457579788,0.9768058039847712,0.9828563937893617,0.9843546826358425,0.9773077023752214,0.9464522261680649,0.9808780751809872,0.9726605285706125,0.9850316858720571,0.9739337883337091,0.8997547102450749,0.9404846488308722,0.9745785892272808,0.9740972583525135,0.9682480870502546,0.978272581276117,0.9621241693137215,0.9753633156844376,0.9830700740927563
0.9785224424789342,0.9787002963878166,0.9837513388296041,0.9772249211436382,0.9726734761305905,0.9809752051052949,0.9548273796278132,0.975992490471148,0.9710921872491761,0.9749892322044985,0.9765121716819597,0.9794838848815619,0.9734605885716399,0.9860920994527155,0.9813100391037333,0.9788592690605133,0.9788928616160751,0.9712417774988278,0.9786942943882123,0.9800754466238667,0.9281929132863684,0.9774368976579827,0.9726407352617598,0.9429929927281891,0.9813293547647264,0.9884003146720283,0.9888079462477383,0.9821303034001112,0.9727797015130204,0.9820358787741995,0.9731120401315992,0.9799912726545238
0.9875874303076203,0.9662442132392195,0.9754699068531604,0.9615252757170332,0.9723875761981674,0.9712001250703919,0.9759255477554085,0.9792345763791498,0.9778385708321956,0.9762166836456704,0.9803724595816673,0.9776050054280601,0.968556530474622,0.9641480907886588,0.9842038816939133,0.9802920462602998,0.9775405962112493,0.9663677279217521,0.9897411999686301,0.9850220121662204,0.9819145739488196,0.9561344652609468,0.9796701125312501,0.9886763313870788,0.9786349592461118,0.9820311523515743,0.9850361690965103,0.981595666402127,0.979224667999093,0.9481503126119502,0.9584051741589468,0.9864192397198418
0.9628947950658014,0.9519895651320567,0.9842994078541126,0.9777056816694306,0.9840579735492432,0.9831758236759566,0.9585268347752304,0.9328177843925165,0.967810904284678,0.9630150190081839,0.9902561332390292,0.9686828653087666,0.9315093163831183,0.970910077020294,0.9805802319432745,0.9865605424139396,0.9908852850281434,0.9602960652223171,0.9709843188153332,0.98645986181023,0.9838139577800109,0.9854412766574114,0.9850227825946176,0.9609718592113268,0.9866790680828458,0.9885403437681637,0.9829847033410555,0.9587606750991774,0.9625580029432982,0.9712941459313571,0.9803779598943386,0.9799204521757677
0.9862242890778035,0.9846457376285082,0.9716015839651139,0.9631661406220258,0.9553582138454925,0.9620206533237339,0.9759874517051816,0.9779997031004533,0.9745814432851935,0.9795785298629204,0.9844433699994654,0.9620136993527489,0.9226543454774433,0.9861027288467418,0.9766942205238938,0.9763575110442166,0.984299540401351,0.987105683443748,0.9815433030820665,0.9781468712063148,0.985983721112541,0.9680402461276222,0.9845423743177945,0.961996518805023,0.9635286969481281,0.9862152585335321,0.9766540769537878,0.9847081917366551,0.9681803750235587,0.9702146152273716,0.9897416496346421,0.9689702991299465
0.9815409614155649,0.9801798439482208,0.9717524610183128,0.9758052429617601,0.9844544018316692,0.982544326798815,0.9478844246653254,0.9802464900584222,0.9671075264817462,0.9764450378589982,0.9761853997971065,0.9796644833109726,0.9847372962118079,0.9799755918268476,0.9861484537879561,0.9877422860739911,0.9899265466165403,0.9791198803301153,0.9838537383119296,0.982031218689493,0.9533807313375259,0.9720847589672654,0.9830074282679465,0.9580878207029874,0.9528709545606814,0.9826008930670881,0.94957296825721,0.9729269956585922,0.9642903035206907,0.9146673286068608,0.9606783683315623,0.9891269865266464
0.9725801013845549,0.9866230160496554,0.956947340389682,0.9778937310064959,0.9798161168249179,0.9751453273838536,0.9772569407485575,0.9857828892461177,0.9909099392076245,0.9696213908315833,0.9838896973124304,0.9702067132294522,0.983936703722608,0.9826399328000529,0.9769570074844333,0.9824844311247477,0.9896841296943117,0.992427089661465,0.9888167516231392,0.9925110772147555,0.9866188988248394,0.9757685799751504,0.9834862431668981,0.9672192810576957,0.9674992735922842,0.9863630622070664,0.9797101707909845,0.9234581896048512,0.9660558393798042,0.9140704234313176,0.9852700130303391,0.9661567052547916
0.9858305610082441,0.9901784036475171,0.9745467730614427,0.9454155430540574,0.9515835537649805,0.9575846353736743,0.9813785045376852,0.9840252818732694,0.9937098325161714,0.9578891710006838,0.9777537492522249,0.9516995160961702,0.9805843562827364,0.9747807770609989,0.9842594876178556,0.9869730980679927,0.9839314954128774,0.9711111476759019,0.9528333356106574,0.9826909444709888,0.9855399578769664,0.9886424405705537,0.9763748673652654,0.9627107972411205,0.9874516958475542,0.9790424837300545,0.9835038252968578,0.9788169763140828,0.9863451868173804,0.9787554474423175,0.9490782588958266,0.9878157009000298
0.9827139887276022,0.9794429341671902,0.984566212528583,0.9781462629084906,0.9694554381243888,0.9836534900416926,0.9399395066056958,0.9751920069991066,0.9869189755056581,0.9637422459443833,0.9807165933287484,0.9542645849261725,0.977362830718186,0.9758763712561727,0.9832076520416636,0.9785543904403721,0.9809735614294234,0.9810933044528678,0.9851962852062861,0.9888716912975599,0.9639466139393728,0.9772152563265233,0.979933617403254,0.9781216947845349,0.9626941285139808,0.9774576463674411,0.9877365540763481,0.9845712474556207,0.9267348822367752,0.928381654891437,0.9758470630427454,0.9829273440530566
0.9889257255387327,0.9838119440467985,0.9907739381896117,0.963211146310399,0.9708027122285701,0.9894790844416096,0.9817982236909715,0.9797710526767837,0.9869115571373633,0.9809217298770445,0.974930608565907,0.9490182153965996,0.9794566142295175,0.9829948565362993,0.9783653245565977,0.9772218285903997,0.9790362750039093,0.9888048609546155,0.9700316893988912,0.9819096341532769,0.9483821172835699,0.978429127668058,0.9732963742742581,0.9781530102254183,0.9806764685736094,0.9891583431233805,0.9711234830452387,0.9874509256530046,0.9621024136352695,0.9740199460492879,0.978445815564525,0.9920932690234479
0.9919239084748497,0.9838132525216299,0.981059662729887,0.9590172222844637,0.9724299096995965,0.9546366670903145,0.9726480182502236,0.9550231588427586,0.9754319329551169,0.9449558106872675,0.947097754678918,0.9614157852776557,0.9868508905003374,0.9805428406548323,0.9692113975379064,0.9711608797514998,0.9871044752185473,0.9791613554113774,0.9872612979487947,0.9735231463102961,0.9569984791131183,0.9828258449736896,0.982524505271224,0.9685076239279683,0.9610684185076361,0.9839257094605811,0.9544596559175693,0.980238917066445,0.9646247845161503,0.9204668504262615,0.9807576121323522,0.9869456715139822
0.9794494145915812,0.9718111872123887,0.9752770491439141,0.9767084852221244,0.9720684105184565,0.9812892829273295,0.97147297029615,0.9880937248698058,0.993346784520092,0.9842907718540661,0.9775948228492561,0.9788523773721727,0.982750349081698,0.9828565566133981,0.9842135368602041,0.9858962936371782,0.9821546948195569,0.9800280952034024,0.9654168970686354,0.9833246927588379,0.9672504614660996,0.9856679403482991,0.9732600046987199,0.9287716072333551,0.9697633237719117,0.9480985872929094,0.9733010628882667,0.9725942691206588,0.9619727882099903,0.8983760549207445,0.9803158694537738,0.9921385958150228
0.9897425336839546,0.9826147492662702,0.9863750667227833,0.9695899254310323,0.9815935859047671,0.9793187513248875,0.9559877725186473,0.9871319804692714,0.983798668377996,0.9672165736263607,0.9654648812461393,0.9772734274491677,0.9718952901884489,0.98388924340409,0.985369401937272,0.9859862290088478,0.9835262139306041,0.9770457889162368,0.9715480365082468,0.9873316097836112,0.9632104588161017,0.9815912871082678,0.9613636686076654,0.9285658991526339,0.9785578907061836,0.9797093278854726,0.9774804866134673,0.9857099443745634,0.9762362116153697,0.9301528145033124,0.9858922262115167,0.9904916230471031
0.9929928739381735,0.9914326012460585,0.9841754679638013,0.9782580093290131,0.9680832804300952,0.9825621018289955,0.9694513754652132,0.9883095869665393,0.9767115503352174,0.9804540497358812,0.9686469990476343,0.9810157082955011,0.9598991756461075,0.9904810021944018,0.9907379023529834,0.9838292881398986,0.986890970974987,0.9788844829267767,0.9811369328762722,0.983506656443264,0.9832405129166926,0.984847468279578,0.989875305912197,0.9482438468059861,0.9610463883709677,0.9828810486304967,0.9810266088242101,0.9540720549891849,0.9766429890862197,0.9357078086504237,0.9881628272475019,0.9806662975626699
0.9559342171975329,0.9830803538817786,0.9473172474984312,0.9414856731259439,0.978204746840941,0.9591136119351669,0.9876835118822129,0.9817087211234342,0.9776751422094875,0.9757085342326367,0.9458189803034264,0.9784749767913574,0.9725265168887175,0.9772260116964191,0.9870206903838699,0.9866829078641977,0.9731063508114007,0.9679233370366241,0.9765144619990178,0.9708788137968961,0.9706159212080032,0.9779840470839989,0.974316539084073,0.9501017230678535,0.9882193224658246,0.9827053715106034,0.9601538678550874,0.9791622391929663,0.9804423098061933,0.9602113996575606,0.9862750333081515,0.9877800702171977
0.965157551426295,0.9799769815213999,0.9750299839321487,0.9809629898246791,0.9836025880968028,0.9623898922007218,0.9800517452841043,0.9758332868635947,0.985666591204072,0.9878951299909572,0.9605340479455097,0.9786319585945797,0.9748088101573773,0.9878387059213445,0.9759016333082419,0.9919505775395837,0.9817573848934336,0.974994287770769,0.980945327846889,0.9837952196723955,0.9542157922229577,0.9824277165114388,0.9817107975005883,0.8820226016775143,0.9495988655208801,0.9899563748829989,0.9755614494362222,0.9807716593866492,0.9847719055757,0.9189550750766394,0.9809562961992244,0.989552500927935
0.9840774314500464,0.9837953423805134,0.9700511943917062,0.9820497092644247,0.9758249628878627,0.9605750477654601,0.9623782215768055,0.9557338911865377,0.9756323028667752,0.9492478228114706,0.9632336199100839,0.9849289995887761,0.9643928493987974,0.9890588125314748,0.9762132280720992,0.9892304729205482,0.9843632959690973,0.9917374129452042,0.9891167135032995,0.9783692036909176,0.9808044085117742,0.9851494043584252,0.9854786562367622,0.9244157450214813,0.9542392015327161,0.9887990516836489,0.9768521252234547,0.9837848761345026,0.9707274376327049,0.9718413672237535,0.9823348773122923,0.9844065650603248
0.9678472591589484,0.9829219367517332,0.9745293303192224,0.9641315337725055,0.9482032516319711,0.9638604058146171,0.9646563358487616,0.9693648854875226,0.9779555892457228,0.9870990683920644,0.9866103814854288,0.9825829948106286,0.9797690722134343,0.9756093851130359,0.9542676869872554,0.974835967968828,0.9832459993821816,0.9860242060924226,0.984072708920278,0.9923092865007209,0.9802044223343882,0.9730047446175952,0.9854319879234289,0.9537365334236834,0.957885186214631,0.9692710986315514,0.9714349126058787,0.9635148350550734,0.9589145025766104,0.8520494299857039,0.9519678198180656,0.9879636129427977
0.9764173759024588,0.977801633851869,0.9906394486570935,0.9643577958975076,0.9901846306533996,0.9562668209871144,0.9698910012885302,0.9765813582841013,0.970726945441845,0.9866808888997114,0.954248579493676,0.9713474109087805,0.9763294314214367,0.9497286707147462,0.9756964113999008,0.9767775790912407,0.988589808230638,0.981986921623217,0.9846687094739236,0.9741697688712552,0.9709585039469136,0.980827024397997,0.971483082046766,0.9704389393878161,0.9699625480919754,0.9784645123154727,0.9820589512592841,0.9743249271597499,0.9811678760652753,0.9846703124459595,0.9921959797127129,0.9850926704858309
0.9929460113615287,0.9934190182770305,0.9759917421460713,0.9784673897552346,0.9608766968048641,0.9823492159003702,0.9375437660496396,0.9840283216730049,0.9777237994163516,0.9744859832068804,0.9782957167701583,0.9771379775472878,0.9850297123775995,0.9854377362734736,0.9828350515341995,0.9876367109018566,0.982844595548285,0.991892869417645,0.9746047897895692,0.9884422353672712,0.9789863837701086,0.9735653878176768,0.9672976328603459,0.8686926333681457,0.971863053332535,0.9850825703401249,0.9752357349434926,0.9670473352474493,0.9863277875528182,0.9558010690032426,0.9833717743309601,0.9849532412079888
0.9753001235821771,0.9842197366733988,0.9806774120028043,0.9781457035524578,0.9828073372257937,0.978869902353397,0.9836121550234384,0.9583471672157616,0.9823966770914689,0.9843297062229709,0.969931884904325,0.9688497579060122,0.9726205697214678,0.9781128626949178,0.9793486028728956,0.9828121123186585,0.9775900557435804,0.979686329951487,0.9838762288792067,0.9806547765511394,0.9725442536438367,0.9749471000748478,0.9711876585743282,0.9434363509821979,0.9741133207005258,0.9709493382080497,0.9834247782840461,0.9738085831443194,0.9768106385397732,0.97166079715429,0.9821172160303602,0.9786375938145262
0.9898200338436456,0.9865561922214603,0.9593715107454862,0.9898015937594258,0.9783593177363729,0.9866657891550472,0.9800608426064781,0.9876195661188059,0.9923285171723913,0.984627986433626,0.988188069344787,0.9709211017616786,0.9581771252967346,0.9922122774506356,0.9845755771732358,0.9876225902582385,0.9868950270027216,0.9659665669743848,0.9637428809579174,0.9650734789674364,0.9487236925770798,0.988160770683791,0.9794060861094894,0.9290969288900296,0.9178154229380663,0.973710587801919,0.9755562482408625,0.952862518747842,0.9697266602522082,0.9450425971472237,0.9664274895109948,0.9873755567786999
0.9908960254576419,0.9882030873371713,0.974700732210872,0.966584355345815,0.9691842646367714,0.9749015623617058,0.9776393726850683,0.9513330890425803,0.9308182917734796,0.9880353887336591,0.9790352801713004,0.9820392403548681,0.9686657056260142,0.980995174923923,0.985739042465263,0.9846293886667006,0.9784591377650418,0.9842825331322086,0.9794854942834567,0.975573154731183,0.9720041360950884,0.9766759977163633,0.9692132979306171,0.9634603088929024,0.95857033271641,0.9915953929303167,0.9776590785825855,0.9195990406030424,0.9789655794986488,0.9372174125172842,0.9928914097993903,0.9438396056926072
0.9802425011514034,0.978073081180405,0.982905973462936,0.9715812844139393,0.9815432072039163,0.9685830323404054,0.9741093867117713,0.9903296077030007,0.9887091792540155,0.9775401054642222,0.9580292198642072,0.973708291276352,0.9884627179811479,0.9866976389486298,0.9821690216286827,0.9855459761294472,0.9911944386951292,0.968510523328951,0.9656971607047486,0.9871815104782833,0.9595608960642683,0.982631292818233,0.9664163709527123,0.9441574598222302,0.9851234749483018,0.9787463363730033,0.9777894433838767,0.9869526865787024,0.977347765042047,0.8727347486657856,0.9863781499837285,0.9567016730534816
0.986425255752295,0.9879018162833646,0.9741863202230008,0.9569109835520404,0.9764634475981636,0.9660719006846292,0.9380625134069042,0.9788353043958823,0.9916401960843034,0.9911917465159029,0.9820826932051159,0.9576349232800654,0.9873428677730681,0.980303028349878,0.9745573306244208,0.9800925072285068,0.9667952285892054,0.9893300569718817,0.9834756814448062,0.9812233074664951,0.9832183240396057,0.9604073591738309,0.9710181703385837,0.9218766720137989,0.9736576598965239,0.9880524811198741,0.9641699890202495,0.8975081753966624,0.9809663299798914,0.9517665549155436,0.9439116945091592,0.9901817918533456
0.9881339630663871,0.986617289797841,0.9711152529021333,0.9659583835090025,0.9807010395015253,0.9801948547816287,0.9837939442902766,0.965299691107225,0.9714634338978483,0.9762232945182195,0.9819024813426219,0.9625038719330671,0.95427708137909,0.952016869403582,0.9897456937206652,0.9821489723463387,0.9821161930234754,0.9583453889754459,0.971871442426813,0.9888338796334468,0.9863343436959502,0.9788590902772758,0.9737648087678514,0.920383148723015,0.9571436965441542,0.9786003590901535,0.9502257372214908,0.9318507869289973,0.9684146677024986,0.9615327940588756,0.9751193469948357,0.9896791096712512
0.9821081108869139,0.9842136758224155,0.9609625312052873,0.9761119543960897,0.9777417780985085,0.9836918945871823,0.9808617616225006,0.9773609844958348,0.9753803643754674,0.9723155503126774,0.9779500343755262,0.9751464078349682,0.9793558879090032,0.9820617465154483,0.9831780473002979,0.9805347726600685,0.9846635902224002,0.9753746610781286,0.9713488509867274,0.9771449845415312,0.9624294217694629,0.9771075273463197,0.9755693508049402,0.9548784624680319,0.9542323934439656,0.9805115578839003,0.9775375169108605,0.972583671641556,0.9859575123471457,0.9695455413116403,0.9803710324053727,0.9779221612866063
0.9889226404689775,0.9891561225350812,0.9869643041098867,0.9841001761619278,0.988352826253653,0.9832587110649322,0.9662942345187758,0.9870663027075199,0.9641523122316504,0.9885598048092279,0.964143710688164,0.9731091116451127,0.979539895944422,0.9706074748322022,0.9698466738931077,0.9822040766587516,0.9832182521427371,0.977756971741747,0.9690741717358132,0.9863906934677277,0.9612103563642085,0.9824755320589451,0.9746109403042628,0.9609939985784051,0.9772626877907958,0.9711688951398039,0.986379630573334,0.9852952997699116,0.9830233159262708,0.9174052894416583,0.9632363082260155,0.9895100665505555
0.993008519926989,0.9912268850902392,0.9796195673461743,0.9896823656545289,0.9847840059273214,0.9900609955336895,0.9726938231683193,0.9694036105603937,0.9415067640744266,0.9791523582407676,0.9581941353555102,0.9835921334905247,0.9699974566723053,0.9782658152565427,0.9699833685067809,0.9779852879320299,0.9649744748687616,0.9865593701062365,0.969362113043613,0.986537345587696,0.9580110042243405,0.9851354795434981,0.9799084893156101,0.9650431186555201,0.9805413432483641,0.9880849622209977,0.9512312431111248,0.9685223518791538,0.9726295754558463,0.9819528677734672,0.9734277521203142,0.9917308478649012
0.952029762218762,0.9595139164466949,0.9501353747445871,0.9798635561746122,0.963910464018489,0.97923115783387,0.9595491335689971,0.9744543009625345,0.9835045196878875,0.9835341262984336,0.9655031280297861,0.9604380266406476,0.9859449706887415,0.984624616894849,0.963904474741064,0.9792761282023852,0.9644944353785584,0.955179142955953,0.9795549805561324,0.9858706816433415,0.9654918924732782,0.975060732779324,0.9759292068651789,0.9740143841750909,0.9665115125952081,0.9839334072189941,0.963991843218853,0.9713972990201162,0.9674261807212705,0.9643924417937311,0.9754038046196382,0.8373669912162602
0.9881361478784036,0.98724161035997,0.9777449878264673,0.9768189082740864,0.9808005778202253,0.9607798093442768,0.9492648263738426,0.945748002883975,0.9878343331972055,0.9829687938042361,0.9766166452602534,0.9817781213287081,0.9822701969164092,0.9770189805025299,0.9703156375398347,0.9655586506819306,0.974447492524822,0.9655373990274219,0.9781205216306453,0.9767962761223506,0.9851586447018938,0.9823402220234888,0.9853416483029384,0.9855510471477534,0.9844269408213574,0.9736523327006673,0.9721540068376788,0.9683629717571146,0.9845073366589797,0.9122121126658868,0.9697496821964786,0.9752163916418367
0.9805471538580642,0.9659032467467928,0.9762781354127436,0.9762035921747308,0.9841278092962635,0.982620997153724,0.9792024171887932,0.9797057909226283,0.9196315003055162,0.9798048639746016,0.9605854329442844,0.9846460856191973,0.9663689555701728,0.9869189425542638,0.9686010688282712,0.9872670551697088,0.9743207464189189,0.9723481975815714,0.9755106200177633,0.9689851275547912,0.9536983685706089,0.9745673996720983,0.978080970509098,0.9712351970375028,0.9682838802234797,0.9782801298468529,0.978378172653079,0.9434496099886339,0.9771539036420701,0.9047983077024913,0.9750114099243501,0.9860531788034328
0.9805343626427974,0.9765819988521076,0.9818728807987872,0.965992212348945,0.9819233505934315,0.9745491034218058,0.9523346317303458,0.973096064320482,0.9761108473663739,0.964833665381454,0.9612432093796831,0.9853141267281161,0.9748358682514155,0.9824781714899752,0.984891805850224,0.990580026947794,0.9885320431867947,0.9714603252708496,0.9733483079097756,0.9735615928446574,0.9242526827644271,0.9149372442154481,0.8856606805281588,0.9830647723134709,0.9817972981692664,0.9802917774093325,0.976349166568753,0.9807854399441785,0.9674581496509554,0.9385005479884185,0.9873246053055497,0.9586048249497084
