Fp1,AF3,F7,F3,FC1,FC5,T7,C3,CP1,CP5,P7,P3,Pz,PO3,O1,Oz,O2,PO4,P4,P8,CP6,CP2,C4,T8,FC6,FC2,F4,F8,AF4,Fp2,Fz,Cz
0.9875120726946272,0.9798445646342427,0.9859189015129605,0.9723832126834281,0.9683543587160536,0.9643031495774728,0.9727703422702542,0.9737022949767037,0.9737515034972363,0.9724712523943514,0.9703883826969638,0.9816234292969032,0.9524871678221892,0.9911695981555921,0.9423996053265077,0.9771036070415782,0.9613539024258339,0.9774238232379843,0.9719953416680874,0.9631436037429643,0.958793571935254,0.9465763421855654,0.9782142943732367,0.937744354388728,0.9816725834143453,0.983135173711706,0.9633719477042153,0.9805593350833178,0.9603532638365396,0.9632758282879351,0.9814715293789323,0.9727993290249607
0.9654972142888181,0.9598403075307743,0.9710158736622498,0.9576602046790345,0.9841238579053284,0.9760562485121704,0.9787927857587116,0.9817249444182173,0.9674453354776209,0.9736283090918334,0.9849682225087841,0.9818534631809712,0.9809078133121378,0.9826150790645766,0.9796178579758212,0.9586547507657004,0.9758438621306476,0.9160128949949355,0.9851838133823249,0.9780517070994464,0.9657512768087607,0.9852148305512956,0.9864358736652082,0.9789027457626592,0.9865527994354087,0.9778886571996825,0.9780488960529616,0.9809011234010226,0.9711622742574982,0.9702672094273271,0.9751766185960845,0.9857125354907135
0.9326647367051528,0.9576928221638813,0.8817164555570183,0.9438133617064042,0.9797071028907881,0.9834878580652467,0.9544037634977213,0.9912437130242858,0.9880318289898841,0.970169453380975,0.9485662725061508,0.9607364488703328,0.9750598550036862,0.9573103509281953,0.9504735621562117,0.9542783857243297,0.9715896078376208,0.983296883536481,0.9633785833094568,0.9868730056183445,0.9736274712189354,0.9743213606359656,0.9760758554208055,0.968242778524393,0.9858876657115769,0.9798468828163464,0.9573450024268361,0.9600567267118922,0.974464717914531,0.9723418313348813,0.982445872561803,0.975657789552674
0.9341732217841354,0.9495202190413654,0.9676877917952919,0.9599451538050922,0.9758622712405532,0.9802545134948744,0.9792549779941732,0.9781049593894205,0.9637116800402246,0.9839024384447177,0.9832227375860308,0.9431880946048293,0.924806465321364,0.9612388031747392,0.972065001140236,0.9896218048857662,0.9827420152855625,0.9843861607380429,0.9644107055230471,0.9895416475051446,0.9854182395265283,0.962168436257086,0.9710353890650754,0.9791663460880916,0.9816362910269395,0.9756516516914856,0.9524964686222919,0.9522913254048009,0.9725534734646717,0.9482191006319025,0.9591388256916802,0.9758513696070351
0.9644200841908546,0.9761320881143036,0.9583276651504147,0.9623275294997334,0.9862253106785136,0.9784594769131385,0.9739525584220716,0.979495245601286,0.9760881648423092,0.9740509862967835,0.9843304562633063,0.9665396949338867,0.9639367648369155,0.9813829683016471,0.9796474132859282,0.9779428176769654,0.9683278447146341,0.9698169702045305,0.9780534838933431,0.9670382584978392,0.9686855506495683,0.9800915324722146,0.9647049365949646,0.9822887468357805,0.9779303807763946,0.9774672521580373,0.9868907847858865,0.9790766101766261,0.943642544536317,0.9599725362157565,0.9756700958093667,0.9859559352640963
0.9824660044080586,0.9839504510920646,0.9772590915334418,0.9761609083988986,0.9879020779677733,0.9505381109417909,0.8477018556703514,0.9778020029762139,0.9637741848278565,0.9650914248600416,0.9410678192100069,0.9880746849643776,0.9798810213554578,0.9815833630288996,0.9663408340842283,0.9893415657954036,0.9827734752811536,0.9659237763324774,0.9812265756442716,0.9779282452063197,0.9680115123964299,0.9767746270538359,0.962185164313089,0.9451909940588297,0.9944054013264142,0.9911686731158483,0.9864820868086198,0.9776849942083674,0.989271618021607,0.984503963003107,0.9911325055818015,0.9861685203807747
0.984411300423078,0.9834160646637188,0.9541842117570121,0.978087018342505,0.9373367639695789,0.9782459830742622,0.9794891698924911,0.9785136529265095,0.945469090573613,0.9805061687076497,0.9775360668609353,0.9842926633209413,0.9852517468862408,0.9855026422903543,0.9784581707326646,0.9813594308692346,0.9535474984134651,0.9473836770636785,0.9848153155776083,0.9849088697192333,0.9881456078376052,0.9829937383304012,0.9800532350631604,0.9699524225963533,0.9878866231211687,0.9851107988665493,0.9849160886111356,0.9793920186054852,0.9838903263223626,0.983295731391561,0.984507822892407,0.9157962869290702
0.9466502780961508,0.96684647675828,0.9439449566982034,0.963747429677643,0.9784943754482791,0.9872733530277583,0.9883079095268958,0.9887828779974318,0.9689050005073232,0.9831196398746552,0.985215938043746,0.9853371467363661,0.9750797575122431,0.9800615300120639,0.9333417025652421,0.9310305111548893,0.9153084686832913,0.9829098614773956,0.9901050578892969,0.8894367301718512,0.9659709999390989,0.9663266258215352,0.9546626440737886,0.9682745011793237,0.9714377194807046,0.9819477443048042,0.9748150222120061,0.9773960021975899,0.9821780352144203,0.9628571877623199,0.9802245236006868,0.9666593331474941
0.9722634905323506,0.9805048522036837,0.9657856931110684,0.9709137022050459,0.9718137466017351,0.8958275696655554,0.9374569251336866,0.9773322796853322,0.9789855609347013,0.9718139427507068,0.9762660317789571,0.9634031527179212,0.9770977976591071,0.9533586389627887,0.9638316155244773,0.9642233441597985,0.8636478601843689,0.9815311151305116,0.9900217593255115,0.9790424149097415,0.9651374573596064,0.985327109964201,0.9834947424900858,0.9757400099058553,0.987666909255029,0.9735269069979243,0.9703152943073816,0.957393720933282,0.9655790221904089,0.9756507719191941,0.9654175458797409,0.9742340218009159
0.9797902952126601,0.9855661356984098,0.9644424343399316,0.9560309656866252,0.9847502211527186,0.990234287663416,0.9858190855555685,0.9911100739644844,0.9831745202473539,0.9833850800672873,0.9866827518498676,0.9800476231430594,0.976018372700116,0.9704387612859412,0.9831625742385599,0.9877883143073874,0.9853588572318617,0.9942637082977279,0.9764855038649133,0.9637674918250111,0.989210611786001,0.9848080294886614,0.9906873096656473,0.973689064492037,0.9907036488537031,0.9877380476188176,0.9662136371150478,0.9678847629917283,0.9829589448150173,0.9784673850201033,0.988213317337868,0.9854760627922537
0.9808350770678105,0.9840597871570892,0.966648634117619,0.9903253768613228,0.9715359689803101,0.9618966927065865,0.9689194993990976,0.9683163379691758,0.9512810935539046,0.9699796305635461,0.9731888941882643,0.9666511205045271,0.968999460942816,0.9695197388256306,0.9264956369007378,0.9694472961762765,0.9017677942930089,0.9793665534518332,0.9765656386321411,0.9216187593336171,0.9713778917861223,0.9565397136045439,0.9702071705502745,0.975155279066574,0.9731609975380201,0.9837754447680175,0.9524484770810384,0.9404357701682164,0.9692380895612154,0.9740614989105608,0.9753939586247868,0.9784498516220154
0.9829311774658841,0.9840964892099321,0.9648475938923323,0.9799026500753811,0.9817221514246707,0.9725737155966616,0.963439025350511,0.9612965442020065,0.9528839956815172,0.9902730792864941,0.9205599522337979,0.981245128157354,0.9882298839776539,0.9672174032132956,0.9369009341563258,0.9786554328518573,0.97091868388659,0.9864082634295547,0.9822048502468317,0.9827960114611483,0.9798020402986163,0.987160231237478,0.9853289354436141,0.9782173138159841,0.9740598344233334,0.9832715605194445,0.9681788302336299,0.9863377228743893,0.9600329294775625,0.9825128936430668,0.9731837406141559,0.9835988582065001
0.9734802227136947,0.9766302285107868,0.9600123557320197,0.9709876372621602,0.9464261049520214,0.9550876759050984,0.9644761823702221,0.9794078060138168,0.9795761842823576,0.9834674333874222,0.9842065307787715,0.9728898673750803,0.9865285296331358,0.9861066020766281,0.9827674336563693,0.9795389953619267,0.9756267372653511,0.9701175078414485,0.9652697994023772,0.9844760313924447,0.9867734709643857,0.922536326421961,0.9423734025179236,0.9893230586732457,0.9752198384273154,0.9823854148625835,0.9802174477073494,0.9738699425165287,0.9747450251681835,0.9908057515249891,0.9859534225027136,0.9598849395881784
0.9612870830234608,0.9506407846041547,0.980493570286676,0.9724597707525658,0.9874408961552691,0.9892296186765275,0.9720488394161355,0.9915423778859994,0.9866328160102712,0.9608152260599482,0.9646247904710653,0.9886398840455441,0.9737827793486563,0.9811513935905265,0.9646620202466903,0.9663708264287574,0.98166571758091,0.9754055164174255,0.9804330661064817,0.987000062812326,0.9590809707958877,0.9550335782792916,0.9800536874700859,0.9506367645198618,0.9813728586655416,0.9847083333283989,0.9695935796772734,0.970153838597568,0.9233575836118101,0.9311642345346941,0.9737443507956979,0.9870537608334967
0.978713253127005,0.9683022702894365,0.9869921910596027,0.9857556233533474,0.9861112700294723,0.9846711663829485,0.9054534547976926,0.9766582560642596,0.9760724960264251,0.942607463256433,0.9505098925829292,0.9846075459337015,0.9842101956925674,0.9860894179516534,0.9600663584649813,0.9533446405477862,0.9854787078856418,0.978715818988488,0.9855509255727596,0.9931914707376495,0.9562873953857151,0.9644884884010526,0.9847970091680781,0.9598707251080695,0.9917642146806449,0.9695502017188372,0.9761755771056091,0.9801169087576619,0.9389747180472998,0.9668040984167633,0.9655418693809166,0.9804801033287721
0.9145201068820822,0.9682114877048139,0.9682482568117843,0.9807177009862726,0.9805964403603414,0.9672967234079229,0.9690594123302634,0.9734912092597707,0.9798114725664696,0.9571543419647955,0.9786406045045276,0.9810826327208397,0.9811872544725077,0.9785111054106042,0.970224115753063,0.9532846875228277,0.9392863094730692,0.9737992370918137,0.9899547998724267,0.9319597824551173,0.9743792848911972,0.9812889834293165,0.9654443042102459,0.9821827538060485,0.9901416693850981,0.9730873136720095,0.9885645030974783,0.9811950678172007,0.981072111731506,0.9624375009613143,0.9870219886447865,0.979732889872944
0.9511599409970009,0.9672043523231083,0.9412348916624635,0.9261309662117783,0.9659309872677101,0.9425777479404662,0.910274925063192,0.9672759293535206,0.9410953746107191,0.9849060500772128,0.9518518768268575,0.9501873327273948,0.9725498948056368,0.937660319310553,0.9674811986831554,0.9852397365168792,0.9693575682544153,0.9571947652804366,0.9906642326577386,0.9749801799045321,0.9740792681290511,0.9630676176911377,0.9766053498735873,0.9791373529091277,0.9553257609047435,0.978170147959099,0.9812262181889332,0.9493059314712599,0.97384618934246,0.9699364518159242,0.9767010878765098,0.9539178363391452
0.9633946934289841,0.9556293851488635,0.9743487414533821,0.9865504955055057,0.9861489040963197,0.9776473796767469,0.9855447327956897,0.9681551950853766,0.9773897384507987,0.988636419457306,0.9731197449584288,0.975963482980174,0.9784852280665551,0.9769147546680463,0.9770180840293587,0.9656327185450737,0.9901599284276298,0.977483158398467,0.9778602437808829,0.9659482726834702,0.9881910400657204,0.9788405045047734,0.9785891655671658,0.9844955566436892,0.9830411915959381,0.9771349080975464,0.9798693912508482,0.983180910548722,0.9775622012700165,0.9673418738059928,0.9746389098241929,0.9868720128767979
0.9750674394645105,0.9735575561274779,0.968242340574478,0.9773343854726965,0.9705565755679074,0.9537048500421147,0.7815045256919937,0.9172812073617842,0.9702657731016456,0.9654534459466,0.95376481956566,0.9525410410917091,0.9692691188480062,0.9793232812128486,0.954367977006196,0.9690893770504682,0.9505147263277312,0.9853884205999465,0.9815132432552542,0.9825504877966063,0.9816550997464162,0.9806124368334712,0.9844865496328803,0.9812142776986192,0.9917797521647792,0.978807536261034,0.9794877591083407,0.9690804083919677,0.9566618923856808,0.9776152449720601,0.9856702841317084,0.9687800235052844
0.944259618684543,0.9724616736599364,0.9630731953020406,0.9863400633428707,0.9712307938579593,0.9797609440470163,0.9773620242665593,0.9802609073523527,0.9766850864562377,0.9687390287269658,0.9654882338018107,0.9840131733506826,0.9770205459995562,0.9788215089755837,0.9770085349662634,0.9824046365256497,0.9760101931611797,0.985323120324319,0.9853782141053534,0.957760439767445,0.9631088522090365,0.9764343530345735,0.9643584308381354,0.9625915925000655,0.9663556409386393,0.984415299211386,0.9908075323708733,0.974598107669461,0.9910064274704421,0.9854769192300762,0.9785959385205,0.9607011530429627
0.964516557049839,0.9838249839796998,0.9644838494909183,0.9752949558728685,0.9430440644766621,0.950116632995174,0.8726399485775274,0.9660287943858047,0.9669928968620627,0.9845206739580988,0.9814388186412438,0.9872632913119838,0.9660497082404719,0.959920020298791,0.9567201526154051,0.8983701846779909,0.8872001789271764,0.928461307372187,0.9875328072934733,0.9835503362592334,0.9822186051908708,0.9806931076640785,0.8381865443877075,0.9609735683887898,0.986737935451588,0.9878079483121013,0.9835375641523715,0.983343489946666,0.9858402068966517,0.9850054481316429,0.9833394155115345,0.9333103504876612
0.981343257731985,0.976225609785054,0.9699482975621303,0.9199795332615364,0.9414769812484314,0.9760850352651431,0.9695951046825954,0.9626369394474432,0.9429511349335792,0.9702687818625418,0.9414206608158975,0.9762066073003657,0.9834202923056832,0.9828585206482678,0.9849291621196911,0.986761649778239,0.9834623138874881,0.9894901054052403,0.9870918345014064,0.9758974157383933,0.987732844787565,0.9677017762185641,0.978478532617853,0.9798616954076149,0.9811919121819623,0.9596425942108093,0.9312859154524067,0.9303736261517183,0.9610788309298617,0.9815800485749285,0.9585509115746105,0.9381692739002221
0.9701202251632491,0.9458097084082809,0.984588645624627,0.9635820308246629,0.9674270368395586,0.963672770325396,0.9452306988092611,0.9739937481785484,0.9867972010444052,0.9698962436580046,0.9793620603960244,0.9580293493765962,0.9926157411433931,0.9890484645493622,0.982077775428168,0.9775765511427291,0.9775534383858576,0.9751664274550931,0.9797532590798778,0.934977044054147,0.9578451732153179,0.9789095918442966,0.9887216747117028,0.9674243294964778,0.9779864446040272,0.9801691479698669,0.9491310846507934,0.987092041794614,0.9897811143191549,0.9665264003939643,0.9860935532896679,0.9732232403533349
0.9618878102909766,0.9730699537769796,0.9667487650888973,0.9788438303277455,0.9815646811346822,0.9733873263281171,0.9763560058658838,0.9913272567635738,0.9664920016322742,0.9855135663718556,0.9798182053529185,0.9606766871783422,0.9861284055900679,0.9645909460627462,0.9317553135949244,0.9690225261674117,0.973382967488903,0.9810678249268467,0.9837354581548823,0.9561774143539015,0.9799685154931579,0.9812389442523535,0.9851364703359572,0.9733976116282889,0.975676346641203,0.9772837147095171,0.9609646605951333,0.9712309524062603,0.9642034023017325,0.9782986838483761,0.9805491357363467,0.9768698435463427
0.9637956336162282,0.9762441505688152,0.9376467045151856,0.9733617744306582,0.9614135534562993,0.962625649629983,0.9673581172655569,0.9394655156099192,0.9753289858518064,0.9873559865565387,0.9694583850732017,0.9902680832655816,0.9769717161020077,0.9824806203982608,0.9588224902493099,0.9829710592335118,0.9709115863888337,0.9845771395021703,0.9734992645398766,0.9760499906945254,0.9703757319158542,0.9571995833135536,0.9663117894137417,0.9700776534990025,0.9571799637944706,0.9753308445035489,0.980642184662564,0.9828518182726719,0.9709709008817347,0.9747485109322194,0.9820299077787126,0.9559585928155295
0.9819588083694438,0.970127707159162,0.9732313827964929,0.9265255860008598,0.9450125028820144,0.9720211872558099,0.9748707140114512,0.9653266369984886,0.9604067355118567,0.9835376349643589,0.96998239591273,0.976449276333767,0.9831389283737686,0.9802125297693784,0.9823907732659255,0.9354376422296027,0.8994156489874056,0.9752831768651312,0.9771766261720493,0.9635291276004655,0.9821996741546968,0.9741580206971903,0.9835547072348583,0.9525225538784591,0.9802913788068854,0.9832346127726801,0.9646415550693496,0.9722212572595571,0.9807097369105409,0.9471843295690808,0.9801486671907418,0.9383659063710286
0.9705827810424131,0.9374060657752427,0.9412062155845146,0.9596093135805518,0.9888001232741253,0.9814536584016073,0.9758516711425859,0.9465031501774162,0.9790740917197124,0.9906892194572412,0.9909954184464547,0.979229683793273,0.977422056077019,0.9829418673732976,0.9791485106959106,0.9784631838274825,0.9871093658713517,0.9888654584187955,0.9850053101831938,0.9840405706112685,0.9745242567306607,0.9784404168100701,0.9730400287076485,0.9726647569404735,0.9871426333195061,0.967150194119014,0.9751019078478789,0.973630442028605,0.9775483630595161,0.9299149428436688,0.9831919057774375,0.9898327089480017
0.9834906023361343,0.987986012803248,0.9777889109156308,0.9754912796182883,0.9855785561067283,0.9730594182061402,0.9849244956119492,0.9744853621836668,0.9704174272764667,0.9615945908675463,0.9606573785298549,0.9819473753142862,0.9827790288343239,0.9845023374622642,0.945475494076381,0.9748309065266442,0.9668537152242588,0.9871510004408984,0.986870507018984,0.9852914130088798,0.976982958834521,0.9826447765445769,0.9721154251534293,0.9668420822112735,0.9903568654159857,0.9854699110500186,0.9742988758871693,0.9766061134101165,0.9479742863318935,0.95849063522958,0.993129463808215,0.9816271112923064
0.9687269072817682,0.9741152763106813,0.9850208069088698,0.9724342161560949,0.9796260671438906,0.9911960879147635,0.9826183156108583,0.969634121912272,0.986262219495485,0.9776252082960876,0.9822227799108508,0.9810317842638112,0.976540087993832,0.9766705080203454,0.9828630935235029,0.9814981827802073,0.9854276446875553,0.9470448894707479,0.9866592590192599,0.9738820930634173,0.9677095016195916,0.960973987507646,0.9819830940549698,0.9660910071605808,0.9836213631075865,0.9571533884689015,0.976127961211754,0.9815554782321549,0.9665958986783683,0.9778069882701421,0.9747690570584926,0.9873372269781653
0.9730411238415647,0.9836755624342336,0.9806670683559519,0.9746159999133559,0.9798514358279989,0.9776732357298077,0.9360060256304568,0.9554005155662016,0.9834233509939797,0.9756158244416968,0.9775057779339305,0.9733552413244534,0.9559434817065527,0.9628668481247107,0.9830292412447162,0.9807467137955982,0.9844903583207343,0.9913250970085149,0.9847665562025295,0.9817305291542238,0.9654232650698521,0.9730205058064229,0.9673345382420501,0.959267820405805,0.9843689750788317,0.913971218538385,0.9815700127582423,0.9830604656175954,0.981050042440247,0.9782385486092523,0.9711121024071029,0.9809248102152474
0.9323357353376699,0.9620596099480455,0.9749261117471562,0.9505026687586037,0.9815510074338701,0.9462472922719605,0.9829091473474364,0.9687036875205065,0.9797217591870274,0.9729871967263816,0.9741826175605361,0.9809349326067623,0.9820495034659645,0.9866379631260362,0.9831414969345905,0.9717828553116388,0.979231623141427,0.9688525718159626,0.9933764233022996,0.953648478415369,0.9789153359052564,0.9865239863785278,0.9692253074414251,0.9856719639031687,0.9791165931685138,0.9914729252644776,0.987264714032,0.9786706600970907,0.9809229379206728,0.9582040715663671,0.9907555254905883,0.9818288749699604
0.9720823284122463,0.9679519513489729,0.940829432943311,0.9523755914281947,0.9907366769260895,0.9717404962360343,0.9469528335756211,0.9784318816759864,0.9837979970620301,0.979570109687981,0.9769137730312871,0.9660562403767966,0.9814012608819572,0.972299566579317,0.964156463136582,0.9626382662986751,0.985751484933156,0.9794676956805132,0.9711113677660865,0.966397083219127,0.9814328344765245,0.9709897056391255,0.9828939073419818,0.9368363930202142,0.9834783027366962,0.989240098840434,0.9841041605403104,0.9610011616826994,0.9777987478855417,0.9811507654753412,0.978454599978691,0.983847146505779
0.9620180794327575,0.9618852490613915,0.9775313230383329,0.9749672136986867,0.9734841457950152,0.984758726368666,0.9607759240465764,0.9770281697251659,0.9703511169123492,0.9638926270860316,0.9815673758920853,0.9713530789792705,0.9842615879576192,0.9535826493267374,0.9795532982211882,0.9823127118423393,0.9657861840636494,0.9711042814600145,0.9674107215724228,0.975340593248526,0.9538602306369598,0.9783416942095748,0.9787262823031645,0.9584641706408699,0.982957007431824,0.9751987079150071,0.9768768994721794,0.9747683694042043,0.9773357671183518,0.9601692305562758,0.9714869983919305,0.970195482066915
0.977821246442675,0.9811160047658707,0.9788747961998425,0.9809180066654483,0.9815091943029134,0.984773834113042,0.9797281047573085,0.9725483549606111,0.9815101021068499,0.9687870485430311,0.9767949816988665,0.9885558701548631,0.9813205612680796,0.9818065715911116,0.9609672466380911,0.9830396288931718,0.9702078497302511,0.9651997068122292,0.9760308282996581,0.9806193033307392,0.9795078356999445,0.9762438509318073,0.962523997364619,0.9782621700812899,0.977914939607274,0.9838905399404968,0.9577015761444436,0.9815725320215268,0.9807559033569027,0.9600996004468707,0.979843329389428,0.9829012446568318
0.9413738932075303,0.9361425680762753,0.9768831609671463,0.9586170740009183,0.9758045828078301,0.9723757329606648,0.9135136577981702,0.9783139629003285,0.9559647497272813,0.9452606159240289,0.9822357149561091,0.9340338623761008,0.9727329319368828,0.9751728695823173,0.9229402259946428,0.9236100501077369,0.9610217153516633,0.9806063023882908,0.9286689043589318,0.9735041654337668,0.9311870617060072,0.9487577194072823,0.9892279106015028,0.9286253007053511,0.9792449655257107,0.986866321632556,0.9613141544877731,0.9863829520774925,0.9605679902090487,0.9728530036048658,0.9749889571606681,0.9715802913602988
0.9839219647020574,0.9690711641717509,0.9801497632249365,0.9808780920894358,0.9329967818681049,0.9666164032424261,0.9855529360260645,0.9750814766501814,0.9234227182214403,0.9900308811207379,0.9839347355032522,0.971891913256888,0.9832134800572025,0.990671603892724,0.9888388743260483,0.9838564339113495,0.9652422053950589,0.9839504212227708,0.9794240028121198,0.9755528928714122,0.9689719523023944,0.9770767968368945,0.9475401508087737,0.9768149542018384,0.978993622718502,0.9832383260983981,0.984219608299743,0.9834154923441062,0.9866169514259551,0.9855249406605964,0.9857397280010926,0.9295261149573872
