Fp1,AF3,F7,F3,FC1,FC5,T7,C3,CP1,CP5,P7,P3,Pz,PO3,O1,Oz,O2,PO4,P4,P8,CP6,CP2,C4,T8,FC6,FC2,F4,F8,AF4,Fp2,Fz,Cz
2.2612305393414824,2.578302057312441,2.4765834337726775,2.200080578868037,2.6656814175614203,2.0432005401038134,2.0533433311918294,2.700444908841183,2.708197886405069,2.008292736015199,2.180104054221561,2.2858581794437303,2.538913498372338,2.9228131656630625,2.1330363317239214,2.5928303869197675,2.7857375440543164,2.8102280408526696,2.2162679941520307,2.4692865739530427,2.1560671599453274,2.2588371928016415,2.1346651534195566,2.0267429742784864,2.211092122373671,2.0992554436534876,1.1614609772453466,2.095920151153587,2.2535446105725723,2.2697601152252687,2.3933941900230704,2.3906287404810715
2.1864237594987657,1.9414167468441104,1.9529207080751305,1.8399380857302796,1.851345322426133,1.8142210829273162,2.067006164883932,1.7565839022867633,1.8405790077121098,1.7372523596699863,1.9818101565564545,2.053509839693105,2.106457112949643,2.2677150744483385,1.934817033373504,2.0275766540863724,1.9323528843146758,1.949725802114423,1.5229486713660272,2.193245235227547,1.90304239682692,1.8281155656634982,1.663697143917201,1.8200026732806263,1.4474580708667555,1.2001685350660523,2.030540220699583,1.4535868807659365,2.109760068906451,2.1099835755757135,2.1522468054574566,1.6731113802108002
1.8925545968876685,2.061012374615902,1.8766023361776882,2.0077759166623466,2.224285174361143,1.9934143773542914,1.5265130277986034,2.219805821198335,2.151532506081394,2.077883499547222,1.8370745524788696,2.4213081075539757,2.330042088817453,2.6501170788596413,2.368269869694386,2.519813460549158,2.3605451705457634,2.3234862937397573,2.0964273595767464,2.611443254983585,2.198552185162665,2.2234457361104907,2.1682726609902776,1.9083096049013486,1.688532805368903,1.9040233343522035,1.4709468770889838,1.8659276600296388,1.8709090909494637,1.8707983034159028,2.147849751150051,2.3295110091330824
2.409500265503838,2.3715605510785265,1.978107955368362,2.02718511223308,2.157378170520153,2.035793381870719,2.0830716970234655,2.191157857857518,2.2287307128860703,1.9024140715474145,2.0444747738565097,2.1470600945606884,2.3217250894010024,2.5653623777280514,2.5193321114980893,2.051768626191022,1.9996543014044643,1.9945561725501482,1.9049313998946205,2.366569220543657,1.8991409686131162,2.0132717604873505,2.0757182337292166,1.4808553476004231,1.6282198396971412,1.7135691011851573,1.8273448154510252,1.4723930391429179,2.066205367274467,2.087619699438747,1.9462371983042055,1.9978629031976736
1.7450048679317138,1.963125210722507,1.5304215662485876,1.979943883419129,2.1240770015566475,1.9732004179706997,1.5679333775162831,2.0946394506572474,2.152807004271559,1.814146204911997,2.0300653889133913,2.29294086944448,2.255561464137013,3.1605784996541355,2.4525802459451636,2.0409841601920924,1.9552453527392324,1.9536180335152298,2.1475873183483034,2.1238897361383793,1.9854858484782703,1.884264599926622,2.05576022114085,1.8451601049239983,1.8843882206804305,2.0860187234999175,1.6835902642978746,2.128538327411869,2.037279253903198,2.020655725585734,2.113325021836885,2.0306928085093783
2.280399847344637,2.1349427460430253,2.0498234652473086,2.027683601612689,1.9334464694483786,2.0472921263721227,1.781484993188223,1.925724706879087,1.8958763595748132,1.872399790617399,2.1928855932873907,2.107131712207815,2.446993059642142,2.8610111554038165,2.404406801816789,2.1548901365619466,1.890780920779767,1.8446632935439624,2.0243635286048374,2.173898552889227,2.153106643627458,1.9894919214403055,1.7807106168302964,2.2663295581764,1.8891033545185358,1.7026052203355122,2.050238235188534,1.892239612944806,2.154371010264698,2.1427970462558426,2.0847946022271824,1.8658146869266719
2.1639671544234664,2.5449931302293276,1.9918713015868836,1.98405524693847,2.0786340333011735,1.9529730969929526,2.2113664848699845,2.120731001813968,2.1674810021458906,1.7183796606102926,2.04637017171519,1.7995486895032553,2.0222364398244745,2.0530096622006915,1.9526730747979726,2.314308252274862,1.7966813910955515,1.8044052771996133,1.3403918312690624,2.0036897662610595,1.6437881789442388,1.7352727213647372,1.9437938884229864,1.6248319631377868,1.3846776945719934,2.222833493151792,1.5761442092388873,1.6324863945537706,2.3735871815565632,2.36166704316447,2.1013600064322713,2.1810779538654805
1.7905587266475536,2.108380134683079,1.5317107159096648,1.702443041656491,1.8809649018372847,1.7079558575977996,1.504661283440731,1.9278982363245833,1.9754585308722183,1.983419899094396,2.2308337840643517,1.903494859187333,1.6171469332682968,2.346765158168328,2.226546284531937,2.1619254952062326,2.098482223443065,2.1415146291767613,1.9338611905789262,1.7558798257735804,2.21415457194435,1.6191838869694062,2.031937228742578,1.4999061550498176,1.6695658032024931,1.9713776054480066,1.9913288566551508,1.5581946567718539,1.9306210625397027,1.9411371434227147,2.0746932210215987,1.9519183264768296
2.1730218769204517,2.122207111114775,1.8522595296779942,1.7704156314168171,2.039955890377697,1.8519335831899535,2.082368332226691,2.0891705512115073,1.9749776278661533,1.7749450194996932,1.7644451264094176,1.9208716130895709,2.3107214068341646,2.197312323017166,1.9574653092917098,2.242102399326954,2.2732340432615032,2.222580423193313,1.954963153676425,2.1526365509660246,2.0211744000436833,1.9073865768541818,1.981343593849197,1.4137874929402008,1.6302283616992939,1.869903495974755,1.7426635735513794,1.5794894827029795,2.141225793183097,2.139524296312427,1.947072868442886,1.919814107046759
2.24044526360121,2.3708142340875513,1.9244020280010785,2.3061876811568207,2.159664119795264,2.266873420560639,2.0554491753175954,2.180338707924724,2.306297319868903,1.751897499573852,2.1095932841327687,2.006576023867322,2.3068687944649824,2.4334018328956355,2.1103377210320295,2.161412180483323,2.0701213027738095,2.0912846456158984,2.009162242912206,2.0765159022200517,2.1282188747328283,2.0855415391400545,2.052449575720995,1.7980184185676993,2.06904984722555,2.067167009824908,2.116469993127397,2.063125459460804,2.2997969703305228,2.3280127122957377,2.521714865188212,2.4162743819159798
2.0912565224873427,2.428791937867724,2.1506601064017947,1.7965512216251602,1.743093822709343,1.8020795121393882,2.0142159465245197,1.7659326473619426,1.9723959906201591,2.065226816283874,2.310668080761896,2.1884625557996564,2.3167591097294276,2.6093966758038647,2.3967108653931515,2.2165393988048527,2.1370976233960723,2.0587347498989796,1.6612707891875436,1.9123775379318841,2.0080201348248967,2.036804547562075,1.9887956979944081,2.0662546826816954,1.9194448960060764,2.274091759299395,2.2476564272627333,1.7043955792286767,2.1639962000780537,2.175349346518386,1.8343520595638922,1.99623762901138
2.2381218119493753,2.4288353800167255,1.7401028841948907,1.712979693019658,1.9791253654845185,1.719879539410517,1.690304402010887,1.8585731606078753,1.9352824198077156,1.4402531724193344,1.8557232612944676,2.0781554745700412,1.642432249240923,2.355568564073239,2.2953172125090493,2.1373737135275803,1.796351915182092,1.9145065461759445,1.9654569318949697,1.6710383362039165,1.872759503372322,2.028763108060665,2.0374467872032294,1.8543539091013461,1.5454380703051722,1.9598927592192992,1.9439358808630152,1.6204210365666885,1.7905104050780583,1.783380692724986,2.335636122670337,2.0214291332116563
2.3556970149822103,2.4101611341305795,1.8783331211725254,1.5778250916233727,3.063907606383971,1.5987897178485677,1.9979212484010027,3.0443389987596303,3.0059452304326633,2.2883735473489386,2.025805273990821,2.3390906215625056,2.127293893461072,2.105326569432086,2.353047555604403,2.0596251237107004,1.7732832195209762,1.738665696202515,1.8121637329774831,1.9916812979625675,2.0770988773255423,1.7494676027128873,1.780751575802173,2.1631164555220788,1.662940489325838,1.7148308064316682,1.424112316755427,1.833880746509596,2.3250765238787188,2.3108542972172077,1.723797926828326,2.683357165466409
2.4500352792725755,2.6364624795643175,2.1499930018899533,2.027708552545375,2.3059819528062775,2.013317534260179,1.9022697509860267,2.3645054037889404,2.5188627665598453,1.8532674991595655,2.3170010495273203,2.2471074277644476,2.8310040414940536,2.3489156413944876,2.2372701819927867,2.3019071902630133,2.642581558683191,2.6170322866370617,2.2279891845489335,2.408906846803901,2.4160149306695082,2.0177157959498295,1.9000911030653842,2.1736501759907854,1.932538777118964,2.1666458983735586,1.8352606443577277,1.4314801323445197,2.431749624327386,2.429360592724464,2.326242369670384,2.0912492069661126
2.4934359772689536,2.125971719985934,1.8637493921255657,1.9520023627372516,2.109843942909817,1.9203172417223406,1.6047005859585526,2.1451697146231794,2.210704643838414,1.835637893112457,1.6452008105940075,1.799255424203846,2.6502421961130143,2.2476095015170934,2.0417258427597753,2.628978369908491,2.433808639227561,2.47548343279557,2.135436660154725,2.0824915788473235,1.986300883915282,2.2391873363571606,2.004600426674756,1.6729385516141546,1.5819102183277167,2.0681481152067964,2.0421027247652903,1.892537436562276,2.1548133953639237,2.165639625955157,2.0694596492386936,2.1330498700479223
1.9631710707385144,2.515758564234029,2.256149967753574,1.8752001949308061,1.9943601319387778,1.8696080191563826,1.886459242244722,1.9918042616428915,2.037799357522404,1.6048553591634636,1.7481786544617137,1.97549492049453,2.282925559091045,2.1738979513232772,1.8726001389644336,2.0137778655795273,2.1390780192564156,2.011894557838265,1.9056284824596,1.9427202799558738,1.5694663185355613,1.9524347110692466,1.8694754960979016,1.9691799597283965,1.2749120461312256,2.31481250170347,1.5473674561526731,1.806024772331622,2.2117730770485307,2.2075335073226015,2.1110803916126546,2.142425652978258
2.1012286774728577,2.168583837264439,1.6348370155852814,1.7883111096803064,1.9558601478133066,1.5192320289214851,2.0532455843964144,2.0197477125474954,2.007623506180281,2.095358705948105,2.007351415194735,2.3106548878504523,2.2126632700255255,2.1204433134757417,2.2569566508951797,2.0597733490899093,2.109161369807524,2.0870692254249614,2.013308747636793,1.9059418855851482,1.88937015616977,1.7689172570523954,1.9086354344514944,1.83733488634102,1.5434642110804375,1.9367738368522203,1.95405762536695,1.6477340820609514,1.9093045154002746,1.8962330756410042,2.1505669411588073,1.9165531585658668
2.249302315690015,2.793492070768311,2.0481281386833636,1.858370943245777,2.3919139955196185,1.866576231083533,1.8153812356631742,2.4428957704265866,2.3516404842920444,1.6061619835386738,1.875094617293863,1.687069276329918,2.3757560905814006,2.039376548735108,1.9784738582818955,2.076479468712907,1.9808960933756707,1.9423392154028136,1.847811765948844,1.5712488294094447,2.054453933708067,2.0050427970888176,2.034328622141199,1.9484751503215676,1.5387190909837416,2.2207272538965532,2.2356547181885973,1.8161627116681722,2.3104114568404093,2.437674090274387,2.285817053913005,2.3800060283668754
2.120977293958574,2.4542254953925764,2.102328639813837,2.1178578422278806,2.3444170268800346,2.0996241055874134,1.7761545631845674,2.357762726924733,2.2775361918491863,1.7135939921068277,1.949737646226623,2.243753234757815,2.123526808741886,2.4597196828105785,2.527192598559705,2.322406240238554,2.333934100997073,2.255157380041799,2.205631000963199,1.925355513177518,1.6759239742501442,2.0692894745614345,1.7351375027087104,1.6623958755706574,1.826187681908238,1.9759730265374278,1.7944733626896552,1.6889655237973078,2.2913996348575703,2.28628552465124,2.231517364962133,2.254011884513006
2.1836435927997777,2.2504951672898823,2.0061422149209562,2.2286805459139045,2.053441171046225,2.221461983362048,1.6823674556309474,1.8655846567009124,2.0085628264761333,2.0529814686077645,2.437384361439552,1.8502161785508606,2.338987152856335,2.5267451412494464,2.4693116920234703,2.6364795414122457,2.352074741587809,2.3350288849986596,2.4394756880405324,2.003053203142224,2.1103019942064876,2.1075797991094505,1.9826944181641037,1.850656986338216,1.7098364456234345,1.9667076807361727,2.229201848825686,1.9761994400744884,2.1474925435563548,2.1496572196559387,2.0773813372556598,1.9300798327627495
2.0573727286547316,2.566491559990116,1.885794438223768,1.8047290700842948,2.216278634065382,1.835618577219739,1.7881580352575992,2.221713224770849,2.145669679857281,1.8456889048865635,1.7189845539535793,1.9788013390154309,2.6949297776839103,2.4837813759631424,2.2002391780663038,2.146359192091044,1.9724279910466873,1.984708509372275,2.0438346636907263,1.7656391339415862,2.1079526572161207,1.8425511414941047,2.137873625004992,1.8979134607507568,1.4143319791393008,1.9145048545032872,1.4703319266734445,2.1198526954030257,2.0239477948044278,2.0333614583537263,2.1220070301937173,2.204077186026663
2.0876067165860777,2.483033396113552,1.7104001038548644,1.9095176911408505,2.123147479764598,1.927581296184676,1.9923120320531682,2.1036398488272776,2.185947539554482,1.8969110099523663,2.011338878225744,2.3336693161714517,2.3547578452522946,2.4453369509357104,2.2793671247571736,2.1411209544834544,2.181542801235149,2.1817871748156197,1.9007765244256234,2.040059443763747,1.8399715937589949,1.515121322723269,1.8251663845668886,2.106945688629108,1.6197644167741674,1.6780036429344225,1.5420133954489617,1.834113857477218,2.2021090394441756,2.1967153691978667,1.910545773755899,1.8269072181758865
2.204374826776329,2.533128923375914,1.5642567122210091,1.7531139958342674,2.2880472986311866,1.7449540638364578,1.8018207708742995,2.272668145068977,2.4862551609810764,2.1410664799304535,1.9986560272832632,1.9265422244099573,2.456177190969955,2.472218888411214,2.348118118875984,2.4355844126408908,1.9875151432236196,2.046167532479767,2.079367990142595,2.0427606159336196,2.121750128502115,2.0759709873141743,2.166243256671618,2.3021495415091984,1.8667676032886806,1.6160312915099517,1.6627846345611816,1.9112971045201788,1.9055490971271751,1.8983482419136732,1.9045463870509747,2.229661781325789
2.2418894564327356,2.5486022106699795,1.9995441392818951,2.1118989309249008,2.6188691940075866,2.218670362803167,2.3255783856455285,2.6556533468730517,2.6156769252847356,1.9303953757161987,2.2590090600173798,2.1935641826954115,2.6013804611719475,2.4912181236449675,2.4668395665316716,2.1556880219056946,2.365665063359537,2.3154561559833637,2.3277696600100253,2.1733046432033514,2.026562709291148,1.9200038330303004,2.048821850161614,1.4779464209049848,1.50608553805456,2.1586527089674132,1.5852784290381585,1.6945204864576273,2.0668223545149518,2.060903026356752,2.3412060986289505,2.512028911007735
2.3647806961948072,2.1934753314677624,2.1894775514659686,1.6621271305347294,2.119060620872706,1.6904975613203916,1.552090457117907,2.2030050599213435,1.9823573567159156,2.1348536583886077,2.056039543912617,2.3063861842053206,2.1705415954480847,2.9257286473547968,2.022940763124915,1.768000443597369,1.8304871077766085,1.8739266317113377,1.7623131890001902,2.105094103637625,1.8903990685883978,1.8289692723385094,2.2346389294409303,1.590174446951531,1.5626020484078298,1.7428681744624506,2.15914484791138,1.3828565111859956,2.122888042209741,2.123649120825239,2.259778491410319,1.9740418602890242
2.464549681706821,2.5976917543296736,2.033811284318205,2.0348252671637197,2.0087197360480027,1.9821697543695396,1.9167883344360312,2.0459250660347905,2.2129418266248746,1.9374063819707095,2.388589348924535,1.8328424970750727,2.385260220389601,2.1788322812874283,2.2210341535467126,2.3042756116195453,1.7272115381679511,1.6788720187470416,2.350591074836793,1.9081207089324719,1.7992527765454336,2.30044655816389,2.2405053471819536,1.8438391338564504,1.861106187734531,2.299417405154441,2.0181519034837874,2.2004404161885294,2.4919122668681286,2.512189548307958,1.9414980536344446,2.61446520876935
1.7125848977971767,1.7906711352589721,1.9759950932584314,1.7206150948617065,1.872568631248818,1.6863642455527392,1.8249442053627694,1.8033877227916113,1.6200930521993475,1.9505999782424326,2.1697709005690315,1.7763195451104183,1.9872549499432446,2.4020281272228363,2.397678444786881,2.2403429310571092,1.867219328023934,1.7415520334085965,2.188932426154876,1.8091163644587187,1.5781792186480417,1.9908157060715512,2.163170253698347,1.600859821695106,1.3876523834273127,1.9213099200916308,1.7708066564429001,1.700442350307559,1.907066000737033,1.8921107699572264,1.4822120722806507,2.0620336258272896
2.1784624728843878,2.188720072420209,2.0064868715221658,2.1463377643065256,2.2216385283066016,2.0800028655366916,2.124941426813541,2.2290991004075686,2.1860907273998214,2.2058248985139213,2.052981952781739,1.9967770704220265,2.3377122349598776,2.7723274085476883,2.506487027309154,2.048383453484538,1.7519128260492889,1.7401079635413979,2.0587348058037533,2.195171320530652,2.141172135639747,2.338050094366821,2.1404231716477313,2.0330659605323786,1.7713472407165087,2.003288270905277,2.009402844466674,1.8209661865357034,2.1185096664165712,2.1143086518488667,1.777271319565552,2.264206066392748
2.105280544264484,2.3702972293183553,2.0416952648439395,2.1562389883877504,2.6314722746134347,2.1065239029926928,1.6252094896625802,2.6949307700390115,2.6734203269685892,1.9355786129043773,2.145697758582766,1.9232941260897256,2.3993495911156897,2.471282611270654,2.440761271593036,2.309845424569698,2.2313096239585564,2.193435793348462,2.529186236830273,2.323961568735235,2.486414653984827,2.048984520772627,2.175464641167576,1.7327952775109252,1.6955539563253328,2.261668188823162,1.8310680568796944,1.7406818710367515,1.8979564516413308,1.9075289044300228,2.325804537693641,2.4425831261596054
1.8812674976802453,2.1258049399753145,1.872952475523265,1.7370901050289627,1.782737626163003,1.7510901621691495,2.166722122265008,1.752814356632322,1.7881966852979196,2.285846693624939,1.9273201181825599,1.9303179024739472,2.3416320330287625,1.939533159434648,1.7841792286601206,2.392781207687678,1.9573982023868697,2.0486696866568113,2.0924310942450117,2.156578296988971,1.9338487306207208,1.7530439940202458,2.112942867226797,1.7497299604282552,1.475935628304093,2.0910402253048495,1.9846325724062959,1.6027334118901293,2.1451184029568435,2.1426166885103273,2.4096487452186004,2.104394143217395
2.228282980729231,2.2158599724474266,2.0244253528339264,1.9765968897385768,1.8274920489300472,1.9104772876858538,1.537639440262488,1.8416551998525534,1.9041402129287728,1.811334323623645,1.8917351092828796,1.4685038941522042,2.1258344995710585,2.1939466540061496,2.3365071926880177,2.0552478755263195,1.936740024353082,1.9296567679139107,1.9248283564015718,2.017237987905209,1.9147711924890363,2.038693137325609,2.1287471451002475,1.6624933765353556,1.8422180012551115,1.8466392267631329,1.9449902570514292,1.6799121078041133,1.9326783690785332,1.9346656104891835,1.9154292554439996,2.0174986863022237
2.1944081595264207,2.1476930187462524,2.1654823921279647,1.7299525873690658,2.2408529590505597,1.6818867442683936,1.6930324915579447,2.286506081506407,2.2999226329122187,1.5713829321609742,1.785386369305295,1.7120425319290766,1.9212014048234574,1.934600367419726,1.9227368574035886,2.1237152143707543,2.0628044960596137,2.171796448540531,2.288069575563559,2.094243250894375,2.036186497856138,2.127178073604229,1.8352963445562092,1.9433021441162697,1.713479025408146,1.8816453620700093,1.93287727218579,1.7368256078535804,1.772129630173344,1.755767495109649,2.2674159069781146,2.3571213794711356
2.1157705948056282,2.36297277984641,2.0291583992575366,2.0207953179790583,1.769400207975881,2.0541796229709237,1.7032661692092634,1.795003933342052,1.8289376557683283,1.6915449948741637,1.883916471934927,2.074280157530993,2.027699576917042,2.0519698799818364,1.8922305912646094,2.2642231160249597,2.284560703571602,2.292898835933077,2.1752244141093264,2.2106686052972893,2.2819748786673886,2.121075388790693,2.1911883164192747,1.7731498612842824,1.5736276104809999,2.0263760455136697,1.7513851739267614,1.3599057951337628,1.93207043647893,1.9323357621773096,2.341584838457008,1.9572426521697224
2.2291539821163107,2.169672856872422,2.0105483676005425,1.9272011074402065,2.011745293922835,1.9109735245572181,1.946085297480275,2.018526156088595,2.2030571467642996,2.126669088621957,2.165213116439298,2.419363945719395,2.291804693410789,2.020125345924911,1.8769701452492318,1.842277507198354,1.6068751269779218,1.6648916915563754,2.0555524910202196,1.6591021437509859,2.072389378965921,2.034873816621088,1.4878196174728786,2.158267106737616,1.848399936598869,2.3961156394577996,1.8288572018649603,1.7889815262331503,1.9832579095392833,1.970085679677527,2.2297958613450852,2.073478126947134
1.898448505025385,1.969116671759213,1.836033253071388,1.7040232473167882,2.0269253810985344,1.6804859710929319,2.0679682298712754,2.0232299603381736,2.0442823438106332,2.2324771242828643,1.9856051022065926,1.9557858459127975,2.2280989148678514,1.8446511345030476,1.929103531877368,2.1009588815578866,1.9628551065245465,1.9685489159177412,2.356082823809657,1.8976790528493768,2.199410317644725,2.184147699889834,1.9252704820232256,1.9644083857509735,1.6668159967604288,2.355450660211979,1.693746315552151,1.6641353776833177,1.760027617671625,1.7710942248078725,2.282967562672974,2.1428636202657696
2.397661381008382,2.5098920527481052,2.293341217520845,2.141928611552289,2.142632846820194,2.154124862329783,2.2066747876805,2.206205887148955,2.2947922279012856,1.9455140705002303,1.9774971630230798,2.2144907336152624,2.3840532641439625,2.743182282233981,2.171299314981449,2.336173553229503,2.405882991711124,2.313461751342575,2.1367022080709246,1.9735963555850533,2.0095084476589715,2.173447047205958,2.1644296342867415,1.9093434340837907,2.042652338537338,2.0141616055236975,2.3392669638619035,2.028213548530329,2.20693886085952,2.2180018229914658,2.203647520361222,2.1724878504045178
