Fp1,AF3,F7,F3,FC1,FC5,T7,C3,CP1,CP5,P7,P3,Pz,PO3,O1,Oz,O2,PO4,P4,P8,CP6,CP2,C4,T8,FC6,FC2,F4,F8,AF4,Fp2,Fz,Cz
0.9848352416413555,0.9841499118745756,0.9816863502569079,0.9842565376154627,0.9892474126761337,0.9887361688514233,0.9872801381706948,0.9510383691456249,0.9893514243176861,0.9869438385401896,0.9850346590282596,0.980765956646829,0.9747809496761579,0.990802970709813,0.9890558761335678,0.9906268325654052,0.986020620751493,0.9860737531370244,0.9855578083964754,0.9804923309532301,0.981187304308718,0.9822708909262081,0.9844250710017802,0.9844219753559187,0.9759392905560705,0.9844711462549987,0.9862269724741092,0.9921133428376244,0.9871430225533508,0.9859818244305723,0.9870789187298429,0.9876197543627574
0.9853302675953097,0.984127504319499,0.9854849604790098,0.9823924961319587,0.9804838110393487,0.9907178774299649,0.9799140198496825,0.9874689395506528,0.9709812586078048,0.9764652701775227,0.9758194834098181,0.9733867902926178,0.9804095751565292,0.9820374434706421,0.9796828031845005,0.9846197140158273,0.978876891526876,0.9751241721936015,0.9755971883489803,0.9788685339494544,0.9775180397046354,0.9801820481578319,0.9695676128662579,0.9804141003697642,0.9865897150992766,0.9918801129571885,0.9553351847137269,0.9773294023474257,0.9582686770993386,0.9873158149911927,0.9590852114926001,0.9773079558101531
0.9885753945201112,0.9892816608850928,0.9853465549238558,0.9880394914621926,0.9876372920670805,0.9867421159750005,0.9784381497939828,0.9906988308326451,0.9751738074264252,0.9873453958789836,0.9727568959622079,0.9604509548859731,0.9713453427784189,0.9574790383359748,0.9405337880843738,0.9919555015057582,0.9634847098648472,0.9651725249040238,0.9807647154913077,0.9696700954987201,0.9827483659435708,0.9827882015026378,0.9254318816410944,0.9828927594167304,0.9779968787623896,0.9898118921187765,0.9833915876388756,0.9827599211996729,0.9810387081173549,0.986637116578992,0.9789320354011932,0.9778836224520385
0.9851650974969307,0.9789890718732935,0.9467649701530564,0.9889480954903508,0.971214036742666,0.9851475910537487,0.9885164540678685,0.977341337136126,0.9653150537764758,0.9745580823692336,0.9706367224877445,0.9444307863545318,0.9896121828433949,0.9712680666865479,0.9510934692804139,0.9680208758520221,0.958342965154078,0.9742391577884039,0.9773305631572958,0.9458964971471222,0.9714078145509065,0.9785220046559993,0.9470105344486742,0.9834999369068106,0.9844856684352512,0.9734674557256588,0.9727967884422304,0.9344545144036535,0.9782395644731424,0.9871299986657208,0.979066434933069,0.9675754994205835
0.9893840902831315,0.9891477621905695,0.9791552513558917,0.9877831249731648,0.9664498791778336,0.9812192559055299,0.9822470930825601,0.9890285607283672,0.9395008335037921,0.9897130073129815,0.9869580929332918,0.9588595346018173,0.9554844221451465,0.9606745492696491,0.9843156872409692,0.9766295683876498,0.9895026892104961,0.9897896436242125,0.9879493545205571,0.9681766138690426,0.9703587055716202,0.958624072300219,0.9097052111050637,0.9317907929666261,0.9598702633482161,0.9741901114121134,0.9901589701871022,0.9817625667853235,0.9906488437020178,0.9878050758647363,0.9836519484896066,0.9266218991792643
0.968550858669953,0.9514005790078818,0.9552039949808941,0.9624008535423686,0.9858361073912807,0.960193651517516,0.9746361265015216,0.9818467686288715,0.9271617774383285,0.9833531019698993,0.9700729162891305,0.9700088843234019,0.9853612718223297,0.9782979822971976,0.9470900760045321,0.98476858999051,0.9802755350681259,0.9815725311557562,0.97559712771722,0.970640559850618,0.9864056399035929,0.9874520054858932,0.9829597559319634,0.9662323113440827,0.9875997062005135,0.9875051995891235,0.9709047483250011,0.9772208040546583,0.9774979082631444,0.9886103960254831,0.9754672746196242,0.973389805592466
0.9907472509180305,0.9890706317547616,0.9823984682595561,0.9897591972619006,0.9801497359939126,0.9858468578858142,0.9872146718956027,0.974417306477628,0.9798616983761859,0.9876157969066636,0.9802078916738717,0.9750165144104072,0.9942044168393099,0.936748947987632,0.9753057451964523,0.985214200086245,0.9919672667099021,0.9896712237358265,0.987330972087557,0.9660639578126895,0.970222738969989,0.98907290129758,0.9684716160458927,0.9747640198839812,0.9807440682200796,0.9814265845739812,0.985539428703682,0.9763878268567417,0.9728908018419163,0.9897565299968174,0.9867963535141493,0.9858400258333412
0.9889723478722126,0.9856659495539422,0.9825545839575538,0.9867782316861804,0.9872662086553206,0.9862786765428655,0.9724990513068018,0.9889970396598109,0.9875022385015558,0.9798827384369214,0.9713595397180108,0.9812406529001879,0.9842122015814753,0.9795108757829015,0.9614521097142175,0.9761224904377576,0.9847467511512865,0.9868004774043411,0.9883906034981067,0.9897805098999699,0.9923141708343691,0.9924466141330603,0.9743278193703085,0.9869958040785326,0.9819360367577609,0.9684221454369164,0.9903750701162887,0.9690819619892143,0.9890260338765681,0.9787856273084241,0.9887996293650757,0.981129072872848
0.9752528071170284,0.9743390528683948,0.9768657077534163,0.9736792191100374,0.9749943763922724,0.9690816350634223,0.9875081293041631,0.9881702681369071,0.9826765238420129,0.9838335070488577,0.967575970936478,0.9750214204181723,0.9815734713396429,0.9682718502097264,0.9803139063199943,0.9749484723727699,0.9725848793813032,0.9651568049689736,0.9620681785680146,0.9851821202500906,0.9858581630112578,0.9765889836695699,0.9698065850254735,0.9805699118544231,0.9886432457208241,0.9634369762018509,0.9864586615020338,0.9684291328697612,0.9787423897998935,0.9753089385973389,0.976907117038267,0.9758836610553461
0.9876849830123936,0.9896168011578452,0.9749479970035434,0.9851163591467144,0.9693820326605955,0.9854872493778171,0.9702990995389263,0.9875035122128203,0.9837479328800768,0.9752279701575292,0.9805408066539076,0.9860602563668605,0.9905708380590192,0.9754832879042349,0.9884240148142643,0.9857156559257727,0.9839301572604263,0.9853905175515473,0.978342896684858,0.9897772933895748,0.9831600648664001,0.992525884554472,0.9639145062681252,0.9798332574498039,0.9661365039152122,0.9896816100793556,0.9936123318371228,0.9892576347553693,0.9930334043832185,0.9929270587559296,0.9921051441957083,0.9863663799926139
0.9415603636685053,0.9627221689964044,0.9578880607361882,0.9668515958737585,0.9843795268891046,0.9768283962332913,0.9728250971594187,0.9490202701363258,0.9885815972842924,0.9704162556703427,0.9432580871414715,0.951869628280152,0.9875670421184491,0.9412738699509279,0.9370688385304778,0.9517359125222499,0.9397161268185713,0.9590396606458096,0.9755760114857466,0.9810217793934239,0.9723058556619874,0.990147431729859,0.9755903653538824,0.9819218713302738,0.9818042657399685,0.9835292363012831,0.9858569870533532,0.9663656936790868,0.9864167733338679,0.9876865288236875,0.987413701513567,0.9853221227795965
0.9864946877868586,0.9867942332445027,0.9883130716773274,0.9851259609484112,0.9861176700689107,0.978886094969774,0.9832291004221622,0.9808696963254993,0.9860163397553482,0.9861694022511924,0.9905854895877683,0.9251867912608379,0.9797070611316596,0.9707418718982799,0.984168914140635,0.9897914739735654,0.9918973057285685,0.9924658142915137,0.9915550888960274,0.9613117911866499,0.9679136493477344,0.9924322893994415,0.9885218396553455,0.9879634422870467,0.9884073072491832,0.9778729578269623,0.9813963414084793,0.9795533768906853,0.9837210247201371,0.9752065224799129,0.9851093061314876,0.9813849356649316
0.9885980709719137,0.9893905739936182,0.9778020286664855,0.9883458362645827,0.9688397688146857,0.971714335936578,0.9764244748291022,0.9827545292072942,0.9866069800734161,0.9856043745694965,0.9810727165684724,0.957829160497404,0.9736736363286377,0.9830419004659557,0.9681620310280205,0.9796970649360774,0.9875570728696036,0.9880446355803818,0.9844897633521263,0.9662637522962964,0.9858182122947853,0.9829373180081533,0.9799412125905087,0.974613590659872,0.9801011683408617,0.9859780916860511,0.9801151729368875,0.9615423035610605,0.976466141336273,0.9823356765115393,0.9761212480969991,0.9864605717915288
0.9755480908710954,0.9751079595256499,0.978511649345558,0.9761510447283617,0.976575284650467,0.9833137999593746,0.9892476836949419,0.9880740908499631,0.9524258204742962,0.9869878362950586,0.9849145465824397,0.9706305673170693,0.9668445990077672,0.9801613311039938,0.9830869291456935,0.9933657406765796,0.982729291547595,0.982108713415395,0.9715204270614108,0.9698431417258742,0.9548894951351418,0.9518171502140744,0.9518739122642261,0.990515368559699,0.9856739841995261,0.9874708753196335,0.9829854897939915,0.9648386537046681,0.9848333912477825,0.9816654204288652,0.981754050744081,0.965809338240895
0.9896910939892587,0.9893222339425928,0.9564672326041457,0.9893946267436801,0.9877719747221747,0.9804436121304927,0.9818016985904975,0.9688288857980875,0.9772959186603791,0.9876694839142018,0.9706450748410921,0.9767917407363588,0.9858398961222195,0.984222819257121,0.9770961724402136,0.9656617423730823,0.9837299564562061,0.9801472164203323,0.9718862565633949,0.9891232294409187,0.9833861104472317,0.9810332057996681,0.9754122222007732,0.9778079769771111,0.9895302203108679,0.9738965057840897,0.989443914348642,0.9836164247815433,0.9883022410704799,0.9803991215162944,0.9889110616535713,0.9849468216650751
0.9759852624562287,0.9755412398948284,0.9768089756035852,0.9731630603223325,0.97374507310901,0.9887079217500852,0.9696220162731574,0.9873435344247014,0.9688110701358603,0.9861005216442308,0.9812850630461317,0.9584030824564639,0.9668445046405785,0.9641864883901362,0.9797127815926012,0.979698082092031,0.981144765766731,0.9807734644991628,0.9775795375666791,0.979158443432558,0.9807552633198593,0.9710327016883206,0.9584837854002293,0.9724656349165195,0.9853753072545929,0.9805972840055023,0.9670700691752913,0.9423146669215574,0.9724183098218527,0.9845755402372017,0.9727903111763534,0.9647312586159694
0.9703776232492536,0.9711645588082678,0.9794435295168088,0.968935356548808,0.9779531775616007,0.9762756295633386,0.9611774515504298,0.9790225040324357,0.981539223619599,0.985037678248949,0.9577876015127017,0.9870610899746572,0.9761561783343085,0.9918328304049405,0.9452122700901239,0.9681574361237616,0.9704091990579978,0.9708289977820541,0.9733608873488384,0.9722023034003675,0.958396945670726,0.9856742739588797,0.9739895696089605,0.9889633446086498,0.9804606897347251,0.9767351328448625,0.9737501832906629,0.9835586558243563,0.9746142449889805,0.9771613471028224,0.9783613898906197,0.978234906968005
0.9906710424251232,0.9875477494523589,0.9795389915309857,0.9856492374272989,0.9857593989583853,0.988497602342247,0.9868186900873452,0.9806130587404879,0.9701710248655886,0.9822095329458371,0.9893145126988628,0.941525441286689,0.990836232328768,0.9804419973078214,0.965635921165513,0.9868202473245098,0.9911858597475881,0.9875534647700733,0.9863652501446668,0.9868445697148291,0.9880448681518129,0.9904239123677151,0.9727846362806167,0.9825328335486854,0.9520749632633926,0.9868211895134885,0.9879468439208542,0.9602347993324093,0.9863178241640069,0.9825694301724631,0.9853758357690489,0.9736576629687044
0.9849151170487458,0.9841802159215367,0.9842701939295918,0.982944732027117,0.9839320502372101,0.9818321715056713,0.9751755521584352,0.9784853464490284,0.9884085640849524,0.9755909708483399,0.9695677137182147,0.9790109302661036,0.9829034577833888,0.9899084645602375,0.9783855672922807,0.9730332267919806,0.9457485025111927,0.9416768509774668,0.9469162185906408,0.9816622741551573,0.9823510050769357,0.9827431890209994,0.984487030480388,0.992924871507517,0.9856549216791679,0.9793461975475157,0.9868372172904187,0.9707483428230882,0.9898775663953651,0.9838590755249834,0.9921560896543054,0.987438224409822
0.9843306532462479,0.9829900692942034,0.9548601034919393,0.982771960783337,0.9843764235920754,0.9781168718775595,0.9771773319222901,0.9845417018325662,0.9947546187697413,0.982798097794037,0.9759750584188471,0.9906707148223804,0.9904781293888641,0.9827090489803061,0.9722380464433839,0.9786017955209019,0.9758755365434003,0.9721795763259973,0.9771748125020372,0.9621853629423358,0.9684186302351085,0.980270969986441,0.9781050598254422,0.988850508181732,0.9888244397887997,0.952207658777334,0.9840791840764811,0.9863387370410798,0.9857471446194004,0.9801094354246837,0.9857718472533443,0.9922829954975314
0.9790941514146904,0.9818515980915516,0.9855062281065553,0.9843681792118059,0.9799873404073908,0.9883590108768155,0.9725702233259911,0.985455095896829,0.9685655836274465,0.9860311782419241,0.9869449791578105,0.9807587823856989,0.9655229009296259,0.9884343410964173,0.9908354008681646,0.9795038163526412,0.9817259300496175,0.985149922387097,0.9905671134905847,0.9901949121150003,0.9757985822019637,0.9785298129108428,0.974643220080092,0.9757499341855914,0.9788015002232789,0.979823569760042,0.9873957280695028,0.9810218544874715,0.9890803332589202,0.9938569607522846,0.986715298986206,0.9629117318624419
0.9884902355257356,0.9892602341045169,0.9792225665359104,0.989804840575194,0.966817718183799,0.9891331836716373,0.9832998969953862,0.9843499923857735,0.9890603868996631,0.9751098692301654,0.9483142780520669,0.9779027685564035,0.9598135229625313,0.9866449833236207,0.9517531878665013,0.9807989738266687,0.971590526885483,0.9809377259246003,0.9851755880253622,0.9914322582031168,0.9755327405347791,0.9729105388305889,0.9717610999833343,0.991309617926389,0.9875726908989119,0.9880921884662593,0.9937788276224695,0.9671590766150621,0.992268404086377,0.9858254803844039,0.9909547065427128,0.9783556919383772
0.9866522426996794,0.9845935576137134,0.9839428235590295,0.98276367031053,0.9856617071071383,0.9912731988664284,0.9884666318936188,0.9557363035479339,0.9871197182093201,0.9864070341530349,0.9828504329285799,0.970096945608067,0.9670843541292106,0.9875111118795946,0.984931905140211,0.9777551108904513,0.990641090285181,0.9908990456935571,0.9866031770824605,0.9752488870922934,0.98739400480352,0.9885445312781053,0.9607784316522135,0.9886613768908944,0.9558922648410992,0.9617453697215118,0.9824142769227326,0.9840496279269105,0.9801240175911746,0.98837691265439,0.9779626489745538,0.985538886033838
0.9890153209599389,0.991254278995287,0.9778877361034569,0.9924412660430872,0.9822169094148827,0.9893543575885069,0.9838198348992578,0.980795232474366,0.9709504774334735,0.9803867544893978,0.9728111294350733,0.985161443251345,0.9847019853596286,0.9883227672727809,0.9857518208157751,0.9805862620902857,0.9938623677327619,0.992142863703989,0.9876695466763858,0.9677578351536618,0.9689087992269297,0.9816443494831227,0.9408124967638658,0.9782771352826674,0.9869085338793003,0.9751152227783166,0.9828256760947758,0.9560005293010302,0.9877332578881035,0.9881804118328489,0.9880272175410895,0.9686136491089451
0.9866843227719392,0.9864947632698825,0.991242853863533,0.9877383723551754,0.985825463080266,0.9802512395183489,0.9840117210420912,0.9894902975677449,0.9778012863589798,0.9688750057403096,0.9753156368811452,0.9673321895734635,0.9683735608327471,0.9756907618796749,0.9582867453621987,0.9819995787896783,0.9922474498921656,0.9896565950948427,0.9841569079057773,0.9783879107329427,0.9602999790046378,0.9804324256229443,0.9811187468466981,0.9885695866149828,0.9859998453108226,0.9900723809229763,0.9849366203712246,0.9918252179773743,0.9917852833442294,0.9913372015625754,0.9911467218652467,0.9752545887399449
0.9890483674921707,0.9883596208600935,0.9797332800256559,0.9852347602427513,0.9885034904340985,0.9938246286557233,0.980225886796039,0.9732995778397117,0.9865515504853004,0.9846271447125591,0.9793963445947658,0.991405516510874,0.9897320672417876,0.9924015434270862,0.9820199151284768,0.9791829466429747,0.9846743927373242,0.9844434942525474,0.9815029788721945,0.9698187189231335,0.9869409699318338,0.9746642808279257,0.9708383085338119,0.9873830017912361,0.9728679084224244,0.9880840677017744,0.9895294146605024,0.9801768756517097,0.9880837253190072,0.9792738108664985,0.9895815081590201,0.9746560543804089
0.9745080875043067,0.9755099698138886,0.9825686317005596,0.9679284195243528,0.9824383415820477,0.9680935765127592,0.9759422264422588,0.9703387442182123,0.9772476790397608,0.9757696577982272,0.9768844065422412,0.9815477502222295,0.9617724380123005,0.983266933704806,0.9698730380710693,0.9689153143528074,0.9769402743700589,0.9827328757875026,0.9858721250583797,0.9748392327083334,0.9778808370997834,0.9720542942545853,0.9526452787244548,0.9521417670106057,0.9629754346253832,0.9630873253764279,0.986481802325827,0.9663463853528658,0.9909423779144887,0.9873841782586388,0.9923454766521842,0.979842774367866
0.9774034211237097,0.9801945277094515,0.9622498857243488,0.9822934526799992,0.9685455371128473,0.9744587416856757,0.9809926932846381,0.9784173467794075,0.987185294868673,0.9832958874623143,0.9739794532838295,0.962016867932262,0.9576984505966438,0.9771936971849957,0.9483058828004806,0.9458645043523648,0.9742974746467453,0.9683895146332553,0.9650324900256764,0.9907431921116285,0.9798411825807463,0.964711032961164,0.9848215859034426,0.9826853311858066,0.9830080672572267,0.9869182256721324,0.9836901202565985,0.9236094654821428,0.9847050406430845,0.9715536370350552,0.9846016062203867,0.9590937249766236
0.9758269435035131,0.9755825871959779,0.9852602901550984,0.9689075339856176,0.9841783305851609,0.9676825184353022,0.9839079475839818,0.9784920592879953,0.9738245201461548,0.9764740923252857,0.9857683865893507,0.971924970652296,0.9826183272945095,0.9743106565181863,0.9762701749466515,0.978680185207055,0.9745842467909654,0.9726149354628808,0.9713666702869528,0.9685165188589064,0.9826189774033518,0.9789294495355504,0.9783519665090799,0.9764060959220774,0.9605884196834921,0.9844612065079228,0.9745451784928697,0.971290108078988,0.9732027059877225,0.9912299558793974,0.975525495140866,0.9787240697710589
0.9916316120969595,0.9917703550749686,0.9762135463214624,0.9918872235137618,0.9875435909060797,0.9811640797690568,0.9855502132528654,0.9797968034157996,0.9844835884020531,0.9865278676809449,0.9740311051067948,0.9700533472525367,0.9905393645148844,0.9880945738493822,0.9661461560675253,0.9662100516048813,0.98660897274707,0.9872888102626334,0.9895666045001,0.9801539465409888,0.9836179955437008,0.991392821724142,0.9808049349033955,0.9725487371314532,0.9726668845358869,0.9881830975376831,0.97822004865094,0.9795361175363013,0.982923810380958,0.9869905905591195,0.9843774596111153,0.9858360288129256
0.9754749276473319,0.9793479333180611,0.9678895112547043,0.9737914338786686,0.9497283356492771,0.9823586745502759,0.965309877437059,0.9619821882449001,0.9873536960371886,0.9713215599314482,0.9796326635608154,0.9840422131777588,0.9801248497252764,0.9901497966394088,0.98243407430032,0.9846350560753103,0.9864889665748358,0.988383825581092,0.9872590372776161,0.978416666809291,0.9836055178130785,0.9829135827691415,0.9730215181475298,0.9788560969411372,0.9885253304365259,0.9834184917783623,0.9905417434910403,0.985164875025321,0.9896376058321477,0.98671103263811,0.9888060425680548,0.9877652115798162
0.9776124870772811,0.9798677402645989,0.979232366744449,0.9810406460825942,0.985446108311491,0.9617599995427745,0.9647169408105749,0.9843116775255671,0.971124368029755,0.9911579160130805,0.9873468432656437,0.9762159856793616,0.9827450629514559,0.9732384812777406,0.9796231040034915,0.9792493857477964,0.9756281592793801,0.9778625945276375,0.9831925541991228,0.9805188613368869,0.9654613001890985,0.9663996359737208,0.9747682818556029,0.9728783617590768,0.96719266392873,0.9742555086540823,0.9835683415456896,0.946814421305952,0.9864875877178347,0.9870027345595028,0.9864478670210921,0.9698370959624916
0.9867853085217958,0.9837850607610847,0.9611945685208361,0.9839777867859092,0.966773007281744,0.9836498641573824,0.9714109188606904,0.9865517532185663,0.97903375113602,0.9821026085212369,0.980979306178731,0.8932506235034631,0.975507737549476,0.9570081744665566,0.9653074735087123,0.977899357979975,0.8842468037501356,0.89407305671332,0.9226833036036237,0.9585490347105631,0.9816598411697854,0.967424173566505,0.9691349639821085,0.9695289028638326,0.9735071872217328,0.9903787924066103,0.9881235034162965,0.9600214235835758,0.9892082980278791,0.981190548042221,0.9894238572666679,0.9744325567606763
0.9791024504462102,0.9805674980331396,0.9613702600580948,0.97780046707029,0.9839069552118602,0.9770968157344355,0.9797673295874261,0.9833928514550523,0.9699404001551363,0.9861209505086209,0.9788516820671893,0.9630393972153283,0.97624659738334,0.9858522215079182,0.9779207935092031,0.9704009352912528,0.9882778724600286,0.9890942478970921,0.987462481633561,0.9713507939986386,0.9829597575868022,0.9795700377921257,0.9717292041949228,0.9771468340175932,0.9884841283819192,0.9863100602170835,0.9855358018041533,0.9731259738081259,0.986608296430377,0.9800366761809384,0.9868567830358054,0.965321366245431
0.9843858093522592,0.9839074773788369,0.9821411076094291,0.979291092681869,0.981040970837227,0.9925301372238076,0.9869660471407253,0.9869737696849388,0.9934640105434712,0.985093770264326,0.9743526640599737,0.9875003695016811,0.992265723868096,0.9891220523897182,0.9841574280838912,0.9861527369052945,0.985585049372228,0.9856703655375357,0.9911242278145264,0.9914199459019508,0.9905954825316904,0.9930935027152806,0.9867078966465981,0.9861421931638971,0.9855063109049418,0.9809601155216153,0.9824885720812794,0.9492230544108703,0.9876057143618061,0.9858419745257,0.9862774508008079,0.9934995664978077
0.9898776613311779,0.9865364128107791,0.9783844642837717,0.9889845629085228,0.9827656275303762,0.983154850481685,0.9764309750225046,0.9836001719224925,0.9808042498325,0.984628695803369,0.9797450912799665,0.9846276220213205,0.9861324743401366,0.9914163594273532,0.9837520067922118,0.9845622451232028,0.9881576856284646,0.9848662642090832,0.9799236443829754,0.9894511403245335,0.9876027296719732,0.9818533106916375,0.9842112052030932,0.9806711499596799,0.9915882423117638,0.984839859524541,0.9887974506310621,0.9610361292702242,0.9899317226650293,0.9867222608327281,0.9891695629971784,0.9808221825952761
0.9729234873168228,0.9792684367813982,0.9756355728179751,0.9765617360568057,0.9635975552428966,0.9811817180489651,0.9732153680975849,0.9872036597740254,0.9564102723675879,0.989445875714978,0.986001998331548,0.975159890610249,0.9760933487817998,0.9655149369165844,0.9813381402365327,0.9810280639819673,0.9664175729353933,0.9787992182891688,0.9831789015367269,0.9756475641552796,0.9724109180492204,0.9859434865142785,0.9930233739485991,0.9779432044617938,0.9857835833522727,0.9580529456157698,0.9797424526171057,0.9742304569906587,0.9816537807634037,0.9883117757792704,0.9814839741773184,0.9721504749793899
0.9739308258377434,0.9847550883232332,0.9757954952979598,0.9851544476873558,0.9877648664425537,0.9855773688243993,0.9800959266227186,0.9806860710694278,0.9685757844770304,0.9843011024899022,0.9869519219646609,0.9879874374353987,0.9800252660516042,0.9808166166782767,0.9675606499642174,0.9783836901687548,0.9873648526410901,0.9773320056750805,0.9791924031247115,0.9461989272177064,0.9853584942739317,0.9746243438913437,0.9699174907217233,0.9734389222300258,0.9819985357910889,0.9763016920793437,0.9894390501036204,0.9720883802995756,0.9858072278321808,0.993133305741412,0.9869501058675073,0.9743649729294824
0.9751635912487435,0.9708300970018409,0.9881692783711218,0.9684847834998908,0.9787724662950619,0.9828840139672377,0.9820564813015629,0.9727349751234768,0.9764472287821558,0.9896658417432348,0.9712347720361321,0.9710259753000398,0.9749833486874339,0.9614691745325152,0.9833173720262641,0.9790706804930583,0.9809575661518317,0.9791586752128678,0.9744620556315085,0.9824004999081409,0.9716279849214249,0.9786765799589761,0.9798584604459643,0.9855012611654415,0.9814175329932217,0.99063824407708,0.9878878517608983,0.9749149520211441,0.9863531548506097,0.9825088250832567,0.9873540786783588,0.978505238085667
