Fp1,AF3,F7,F3,FC1,FC5,T7,C3,CP1,CP5,P7,P3,Pz,PO3,O1,Oz,O2,PO4,P4,P8,CP6,CP2,C4,T8,FC6,FC2,F4,F8,AF4,Fp2,Fz,Cz
2.7617857099080667,2.770764455844044,2.346215450232977,2.381337934027222,2.6781446023991666,2.2658628921534794,2.1921609104127397,2.218232177490322,2.6285597362181323,2.2864685798945654,2.0431980894923574,2.348626992635379,2.590176254696449,2.326419487343408,2.3272175640779538,2.314511243100583,2.2673576135420643,2.257203981379214,2.1184448264438114,2.4064354333404303,2.288062625219191,2.6532536420988806,2.3636263774392257,2.148009792027935,2.090760323977486,2.4335929217057575,1.9608490503215041,2.218595454227814,2.059993896503373,2.077217190812611,2.6408896701786713,2.412644847743633
1.9919637353120443,1.9954033864407381,1.9268541492642144,1.8719947063191993,2.2458708460166505,1.8480991639563018,2.023342030502367,2.080032703973891,1.7753339962206436,2.177135976497986,1.9334770718305243,2.1424707412207455,2.198812261103606,2.0641316872180084,2.0835140806141577,2.165498360836779,2.176137116353372,2.1947513938366865,2.2327464621326945,2.332020441566861,2.1056164064457636,1.9756698930483507,2.2030202296781245,2.1467734152718925,2.1809853622765183,1.8970852974348993,1.6202712604323215,2.1997200532565726,1.7967541424664097,1.7872128198262722,2.272704908310911,1.8116729873496855
2.030122859604748,2.0238568957645646,2.0215608491566637,1.9932775563329785,2.1365844067447055,2.037211617362344,2.001994984793495,2.3244524778818665,2.1018127990788757,2.1788446487680195,1.9860051121548825,2.1093425933382184,2.15189650404249,2.0492960905084048,2.0508883901514685,2.434370453931986,2.5140841695681906,2.5361421362891052,2.1893175641068194,2.0957279805866107,1.97182190889718,2.030577703212586,2.0033059690329598,2.1461531210395894,2.082664152533725,2.1137658453791905,2.084833697350324,1.9339835931666767,2.4044079616865317,2.3670712126570232,2.1298554216207406,2.1279594436932783
1.6844602291976867,1.7246014751037753,1.9318253012090456,1.8718761160518715,1.9777807475097924,1.8051321490738979,2.2143104384821664,2.054813226189592,2.002872223564114,2.069686978275346,1.953135844820867,2.0917242965608964,1.8626373375975458,1.682914158648776,1.6874850761186602,2.1124707654393724,2.0478942550233197,2.0472557789329837,2.112931146500866,2.1057410597901423,2.1886215221742265,2.1163194026306846,2.126868435506428,2.0124764333203573,1.8539243837874664,2.0660353101418147,1.782530924025775,2.0082754630061967,1.8188638477914116,1.8125631857541615,1.9645903926406953,2.0335370271117585
1.731636240727756,1.7171626756783809,1.7166189474024276,1.9575985208166335,2.1464299620334506,1.9284103454659927,2.0813491599302054,2.218363332486712,2.1421856604037846,2.2869558620559474,2.239506716951155,2.044463051661969,2.142149162705751,2.165200012282014,2.1461316223889373,2.1024171203563076,2.120019692368462,2.0993302646819205,2.111667519442192,2.165442337847531,1.824677506820138,2.0933929163380935,1.76907769945506,1.9800359260787637,1.946876565538682,2.0668033341286725,2.2736709774356973,1.9585567652952987,2.19888821734934,2.1401512477041997,2.149919443404495,2.001051881777148
1.902785804529873,1.9073941271243782,1.969095252238692,2.029032579020257,2.3013780594723583,1.8045462530353296,2.322221563011607,2.0522471919176297,2.083022398640747,2.679198049360045,2.2613226635674595,2.2398395726051485,2.056409780854382,2.2469841805768085,2.2309098894209205,1.9057954883749446,1.8646104256665177,1.8943170305148331,1.8275912789688435,2.1810046278424524,2.383729263623304,1.8228413425424859,2.120058265395363,2.1230130011240385,1.720993325277221,2.093864550662101,1.616600707796639,1.8323018861284674,1.543927728836613,1.5173959038237472,2.258901273720664,2.1583554791809982
2.3116900332760384,2.307461083180184,1.9291207855183892,2.1747011747843024,2.440454083936828,2.3245486180632082,1.8029749402650737,2.085856767249622,2.505515447753172,2.1131943889109825,1.83456893229289,2.0087241604028065,1.7470189069237254,2.4277982935637534,2.40857529228576,2.0017788354314536,2.0048375575034107,1.9712162647225588,2.251360004924325,2.3722141627135174,2.496909579036368,2.2634404815920544,2.194658283234355,2.123240559259985,1.9996186173023387,2.336991118901376,1.98322938164421,2.2664720230351207,2.0588754613615876,2.118715423784433,2.448693006533798,2.0313831240612727
2.009509791902503,2.0308738209915704,1.9429351382238882,2.063412089132838,2.287106056062711,2.2386842774699804,1.9755750982407352,2.0788757618524936,2.1501094229288475,2.628860237737864,2.2614373565809105,2.320346635212443,2.6766436287415685,2.5245496233491957,2.5004580969343992,2.1382024450848705,2.2229175623615105,2.1956302880642977,2.4131506130930847,2.0178325078090213,2.0816673665554317,2.4362815509968474,2.3440384806366015,1.7795735956459335,2.01145019425988,2.2194192741586796,2.134593234532494,2.0095432501919888,2.204666971630354,2.1954646553992436,2.348896237932655,2.1546321154213226
2.0901468131529004,2.09146036269678,1.9649297557090684,2.147086442989195,1.9837196119151592,2.0039284155073123,2.168020290935452,2.329866862981405,2.050406455292476,2.0566597607025736,1.9784131107279603,1.7857746015281943,1.9745615949083875,2.249674574516073,2.258764002513954,2.235268420921295,2.295371465325021,2.30918387886394,2.246903632817241,1.914934509963505,1.5032771697851937,2.4218573545061504,1.6716535719109609,1.9347132630916761,1.9516941513750556,2.296879827336854,2.2959176877224237,1.9871205311736908,2.240495172246768,2.2332771467876387,2.0915226983053823,1.8807582943270906
2.0328232704165337,2.0396043969294233,1.9359124459135473,2.039631804297202,2.489840633047515,2.2318906347147935,2.1882219999713195,2.2552796057589086,2.360725755718825,2.433154108004064,1.9982129487540443,2.2963104834776247,2.219426700850224,2.280750044963982,2.273036189689044,1.8994049894232654,1.9358537058896497,1.9345856361420422,2.1619583435432954,2.0014252296143904,2.17626647219538,1.7790870852834608,2.1188964546773894,1.6743677729123334,2.1564633727897173,2.2927484081413083,1.9622770467229969,2.0864541238822043,2.152922546701291,2.1251176540221866,2.513942097322043,2.136713352779021
2.2452107904259955,2.211647055620262,1.8902554983613318,2.1652921855219014,2.447195494592557,2.461447447406716,1.889898131301882,2.0091261575363477,2.282297348989799,2.096201243594568,2.2813174501940687,1.9744828202537708,2.452605745241407,2.4128968917280442,2.3926922098390717,2.160654681135194,2.173628155760314,2.197709943491504,2.3646050579372333,2.3592821215559217,2.4175763782638366,2.5644926835770163,2.237966859529691,2.00003678857477,2.029696886169867,2.255078174874807,1.9691835137313094,2.171659703951451,2.1661455845972553,2.1757509854526718,2.228752100684467,1.782826358374249
2.020910469848675,2.0176666454323913,2.0106788654247167,2.1063706740614356,2.1780729394859537,1.6592342358540701,1.9060426580741006,1.7033676045657211,2.019335576762907,2.17850057290505,2.0492686413359413,2.1808786326120404,2.7170884691689308,2.3657686645867337,2.360859897797981,1.8892436982957042,1.867885225532147,1.8902548509520019,2.2229803028327515,2.0122273566457896,2.1935507811902895,1.9600408419551902,2.0472380720385126,1.9429746026268888,1.6758766644496954,1.9728695293804512,1.9810562565919716,2.0949900393870964,1.7483674762080643,1.7753051918968865,2.1329020790784576,1.3477224913559642
2.001122774284107,2.014891542353049,1.9179884139478316,1.8708250277343772,1.8691669339760857,1.9049460685769277,2.0668923057901276,2.0262105172355644,1.971187735267038,2.0969946119415064,1.670241994894191,2.006434901468029,1.9268264426462967,1.9366633173170342,1.9097225301144032,1.996550793419065,1.9924912770621643,1.9605388981059415,1.9339068273433286,2.445050697424022,2.5120867533330045,0.8424856520447918,2.0442272219131006,2.0692436597555277,1.9574310059043503,2.1460936257066527,2.152467050179079,1.932634245865301,2.357815875688986,2.3738059644496694,1.8183973553429238,2.056584637226808
2.2018479256513563,2.1770708734121254,2.082571075291649,1.8109712065967707,2.1324390725057407,1.8249569388777862,1.9750383467701105,2.0610375185653136,2.058003804144107,2.2427644980552537,2.002120393208687,2.113222654212638,2.3126787445743937,1.8767435383685833,1.7708874479966645,2.2557132048952537,2.2267679554250615,2.260101392132458,2.170821385300108,2.084455898699487,2.130481333267912,2.220359243660748,1.9475478139120448,2.118966676595954,1.6948462657445038,2.3921190675954898,1.8320582157288399,1.9449392951228854,2.0245613659193977,2.0310706605762614,2.1249345763226284,2.1835867464064735
2.080757364576772,2.0817418294939607,1.789811982454652,2.083487776905386,2.176696857512859,1.9292716801651557,1.9671379623146206,2.18488036696615,2.2575732508352995,1.96532933335768,2.3254212649456942,2.120508892871965,2.1884280066492283,2.2961553848660463,2.339261905918113,2.169647697488265,2.1729976509580524,2.1745863161125802,2.130671498502872,2.068434622550621,2.0538754256755207,2.065735735857927,2.142916821761991,2.1148473683777373,1.8912757028520222,1.9880619942457702,2.0200226415654945,2.05653444855509,2.1500087663911835,2.2617911709689387,2.0566964226246127,2.0815662687336456
1.8152619662710516,1.7806596435672222,2.032228760864872,1.8743196256398693,1.9177993092302401,2.1017506389982734,1.8708531439949314,2.4138534112143977,2.0834716334353915,2.2671701621665967,1.9644955317586787,2.22874154285049,2.226685922205354,1.9328562227069541,1.9314106290014679,2.214678388240695,2.1985822811684006,2.31367030581147,2.4697923259338754,2.0079796909650867,1.8160293044713658,2.05239642306952,1.981021422204043,1.9020144213024042,1.8648670901758058,1.9315468293242315,1.8341838898703204,2.131064886315677,1.8811744483112935,1.8871072630229713,1.9052995970536304,2.01349854523356
2.014757622886958,2.018847312962643,1.9427026554190516,2.0287972514260537,2.236187939568023,1.75110462001155,1.9287223500791513,2.1124340226798153,2.075822154128747,2.1634687365259073,2.194649056529265,2.285622352803883,2.3659677084152917,2.2811347330379252,2.271890321977412,2.2113166001611506,2.226202658986272,2.231964587639032,2.338451062259428,2.0298579246463637,1.8242798919949,1.8876819883849665,1.985105386384009,1.8598895916525635,1.910708596145955,2.1214861562387592,2.123899145163868,1.8871514237369054,2.0351801951562316,2.0515036672132916,2.2836835644599303,2.060077457972678
2.212678481729649,2.1794583594755763,2.2785505156761836,2.0206188318881524,1.9363679142435746,1.80074079736058,2.077863572108405,1.9955469980191265,2.113766441711612,2.3934927033386426,2.1098853792920127,2.2413007629963015,2.1425905485335734,2.0905041823648034,2.078133519353506,2.226667298248742,2.2256407406768863,2.270888412310493,2.185561995270111,2.1914057363257617,2.246774562463127,2.151460040293651,2.225288121419722,1.9191150300613506,1.9783581083121489,2.25942366217782,2.067779630123414,2.1624056044392006,2.0499543406402596,2.0287967999803915,1.9041921942221178,2.0327988922894615
2.478597190853813,2.3910519805622323,1.832785735951058,2.077079491664919,2.15043225539964,2.5863117623124756,1.8797981136688766,2.1063515501575263,2.166407332369409,2.144786213131849,1.9566223160476075,2.3196510982395826,2.3071278055023186,2.093451101660203,2.0743176448298315,2.6128896155021804,2.635391869344699,2.589189743216887,2.305352277280766,1.6038951161517252,2.3198775554270052,1.6084420373725732,2.227809049204624,2.2327350460131017,2.2976196971451057,2.1939948158409894,2.3943303824765416,2.1537827840190022,2.3354774928206683,2.3492176781907257,2.0894423212395035,1.8503147484947753
2.4770349099604716,2.3985151219701906,2.0439483488263788,2.409482841637766,2.376355364633364,2.4266043160466033,2.241828139916851,2.0770525075086907,2.5426466078684546,2.4084280337454516,2.4045605886315435,2.006683439850824,2.457851038769876,2.0861296941715564,2.078976414467843,2.0945662277381407,2.104733083766617,2.1396467498463485,2.253767668387856,2.2685976413077165,2.4589694846017385,1.7140822235481115,2.015921213973076,2.103449923904694,1.7415820337997543,2.1471482169937413,2.2550081764297447,2.144299415571702,2.2725563933749555,2.277515788561267,2.39494910271237,2.1356591103588984
1.8788698823797387,1.8600815799121029,1.6466330785819032,1.9151958456730451,2.358949423815307,2.099462586227136,2.1387516482563553,2.171953594474967,2.01166417860368,2.2231969790167,2.072631558602895,2.2981924245190677,2.2107447147053434,2.120919245717828,2.1191920125865993,1.9676035569816748,1.9619358352662848,1.988636959051438,2.0552645381057606,2.0992234938392134,1.8393144728467024,1.807845801267187,1.9097155125085088,2.0402196425296215,2.1072046265145215,2.3738637071655493,1.950376511564709,1.9590413431946803,1.8347708537922274,1.8514684172773057,2.3353331862498483,2.1805286045346564
1.815160383979509,1.7887487385662506,2.305634259468862,1.96163147133425,2.3789875685809654,1.7863388222668561,1.8048673720939157,1.8367739217092818,2.182547518838517,2.187194453542723,1.9838532718958684,2.231840314472797,2.247624625261251,2.215249248244016,2.2203380872517964,2.1351177983421548,2.157755771456063,2.184761974230369,2.185290599418338,2.045200365142867,1.7977366184393058,2.1101788919036024,1.8642003587445768,1.9331591857871901,2.1847287955285863,2.5906327477215134,2.0085772219242473,2.053279658738788,1.933903695973716,1.9358396835121372,2.3471115242789216,2.113976067468374
1.9636404283625704,1.9718939817199121,2.2061130195424163,2.264814803495313,2.763440124453423,2.2560262654121903,2.255943151299459,2.2262283720573453,2.7010051177738394,2.3331363499771522,1.9192734085622307,2.247754758668836,2.5942173425160604,2.62140826029408,2.6245973951927812,2.334569754052614,2.3379489729611547,2.327825791473635,2.608855191867147,2.499737656052329,2.1950933273640643,2.418176698764301,2.0297788023061836,2.0466565508949492,2.2164753945202826,2.2823389463596255,1.9884191677914937,2.6728066577809524,2.5623256987694574,2.531274355243424,2.8186613240917615,2.3684853406771222
2.200252159279501,2.188912250699887,1.9450215797057466,2.0986069032029353,2.2893340019331094,1.812757014903443,1.9096568313393616,2.214347334218162,2.0601481138286344,2.3863010784979264,2.165798670032686,2.1225064976426524,2.3073844303398086,2.2872426552723994,2.2692524167395867,2.019096193503716,2.0259808680101403,2.0405647933439224,2.314700239695618,2.131965001698782,1.8107919846855227,2.095618519849827,1.842700823631424,2.0916280542337358,1.9551813582786004,2.32376952559368,2.121488989338257,1.8317782215446052,1.8634196057026167,1.943040859601614,2.319404116026404,2.220083318637695
2.241483782251392,2.2335966332223087,2.141976720625843,2.197963884449174,2.0306027823294843,1.832114936228592,2.0458973880771083,2.084847844002906,2.3143734741244213,2.3479080662372462,2.0931708028853406,2.4199504233580376,2.3463087398096496,2.303046043564703,2.250865239046911,2.059053690397687,2.0382798368600215,2.063068254966389,2.3016059616418625,1.9140101307608801,2.157218425009747,2.075272062322465,2.311515770328587,2.2067716848068817,2.22019474427247,2.1194707141643314,2.3508308965841493,2.143379165542847,2.1162024613164694,2.070980666624379,2.1835451493742024,2.033995033102272
2.1217861662172095,2.202166706435776,2.391500837938312,1.9599628868691847,2.3808011951269825,1.9847172081901057,1.6620680880823557,1.8317639756222497,1.9982939986284471,1.7160635100323804,1.9070324350813108,1.9411256667361256,2.768451342768022,2.1766216441124544,2.1437214821684525,2.2144473496862673,2.1748759059196963,2.1860577019731307,2.2187813012214828,2.1758241217815253,2.1029093141932433,2.26977351145967,1.8562909653154103,1.917451798257601,2.1324300490510213,2.2609024468085197,1.993147735286505,2.1384952786942173,2.0961192549006866,2.1011798215103874,2.3368751883929315,2.2371244345545684
2.334782193763047,2.325654334926462,2.0306015816155227,2.2975956846895897,2.3513197209604466,1.971106977360543,2.1292472894369547,1.999458838820035,2.42635081133913,2.3126479856982556,2.2403795287045396,1.8449044627051592,2.237987894603298,2.258233253514254,2.2584960135251695,2.143364615989307,2.214511449784769,2.198244476351556,2.2686721125781757,2.3297694682061283,1.902363590481298,1.7748929579142283,1.9705249268493832,2.0279046994212733,2.0145710448766803,2.2575685980590885,2.116246029407257,1.787818416052947,2.1140198276082893,2.1195464166472844,2.3184813811585507,2.151562378816057
1.8742919974443024,1.8973308219691305,1.990829781021881,1.8778358480112267,2.3450630869411655,1.9507573951303074,1.5790520160458308,2.031535793861921,2.0412917462760416,2.3011950688217193,1.892441371070217,2.149161652918138,2.3950199508794703,1.9943808024756977,1.995821282302748,1.9174770701636,1.9506551164606483,1.972985111128713,2.312345728096665,2.3457773130410535,2.2577488035605295,2.0752249795483793,2.0309807929618544,2.4704006308746576,2.1061515461049347,1.892458361862255,1.8097788521617988,2.131742958260295,1.75414926179375,1.7783223656836857,2.3238875803452967,2.057468661630375
1.8534815591505378,1.848734535221785,2.0640438570056037,2.096165444202462,2.0869216369205588,1.974522143347508,2.0106524443725413,2.4215338230196517,2.1743164757825104,2.1557994892296786,2.1029557805932906,2.0684237796076896,2.030553407035387,2.1326364623824885,2.1177459946461363,1.8496193207531149,1.834622457810037,1.8084049975406056,2.238916208798737,2.1134254650875794,2.2078139216824892,2.1295446893497805,2.4415632396680818,2.250439343749314,2.278192310226038,2.538853562236422,2.340137472856717,2.660711834558151,2.223074692381063,2.1975618309889646,2.1080187969041804,2.193576650652986
2.475390039218558,2.479677571093199,2.1449478271039957,2.1948457550252116,2.2082261531814,2.0201661726398923,1.9563454603730108,2.2074856558709763,2.1798206326307916,2.15517240930103,2.475992231295914,2.2212188071560295,2.229345485267619,2.1976959746601916,2.206753545036871,2.1496198728159213,2.197580041898334,2.2188106553024833,2.4420766807560086,2.4861886150447132,2.016399932604188,2.2888740877103495,2.1733277180192183,2.6333942518249955,2.569081824805233,2.4675031356028643,2.104185784353992,2.130896076369091,2.1695163178031036,2.069204026432932,2.2036036034247113,2.15193909487998
2.4459242139560273,2.480156885152974,2.203470016509386,2.3236058083189954,2.322633780476068,2.270096067843329,2.591862543652882,2.1733016521827686,2.2300409274336714,2.3404813069393455,2.23413867188024,2.3012588599451194,2.261657123197992,2.0991376163925577,2.105475145471837,2.1721812049085774,2.1680798550322233,2.1705638842270165,2.243118959925658,2.4673870197844914,2.402349954827971,2.5348456759437243,2.211549198428744,2.3169781405673393,2.2544054113096506,2.535657593697627,2.175022397715536,2.198785778062279,2.168503583821596,2.2602486031955444,2.335096439021822,2.346116598841871
1.97807002946677,1.980618720200916,2.0948127831022263,2.004610556499089,1.9970201190630605,2.073762305899229,2.10682677276748,2.109325224369102,2.0326593673333573,1.9944772770441404,2.006954520863851,2.5972943348689803,2.5294769536371535,1.916641601131457,1.9028638698259723,2.535305723739316,2.5803776727552887,2.5986518603084257,2.4407162308367463,1.916281445055827,1.8963513139677952,2.1662984737767275,2.4113103949974635,2.361234151477074,1.8379135917784652,2.0443609162878342,1.8263003579546104,2.145904429400034,1.887904988501682,1.895768932827324,1.9695688459520535,2.064171021192459
2.053993189498017,2.052861442937512,2.043186651985965,2.060243698814958,2.0546794333049085,2.113703558165352,2.0370878574969655,2.1221166593545555,2.0647682490311734,1.8910260164224104,1.9560921521962953,2.0788166376823276,2.1328244686767066,1.9425894655562332,1.9401006525199676,2.008584479441369,2.013336232686631,2.0133735595961024,2.0414893048260314,2.1203414849221276,1.8796184574483636,2.075183628273671,2.8124321993803436,2.101925263506201,2.4876840475661384,2.0522230192775397,2.048229640095329,2.097255681226864,2.043567668303241,2.043125306543847,2.051484893163085,2.063370555329916
2.200847106669378,2.198846526405587,1.96633242712874,2.0980812411339356,2.096830253757657,2.101070213813839,2.0424216495248992,2.0329743885976996,2.13253950123707,1.9560353490119025,1.9894312280571247,2.383024424317816,2.380349338975132,2.068277005548188,2.0589487458103437,2.398723520246692,2.3829298757864668,2.4083090018306392,2.6356077203286743,2.174007112686949,2.030941175927889,2.2591844997310107,2.126427090418641,2.143400853043685,2.487779036893507,2.2030846681670018,2.0955181521799995,2.2245353692584486,2.1210708970499863,2.1292990085649817,2.1123679833283964,2.0960958185953147
1.9298961607089922,1.92965422894419,2.1703657828460994,1.9728451549860044,1.923518949900434,1.9750215922336436,2.053775278148391,1.866418008283794,1.8013676190453631,2.4108268840946856,2.321067925479118,1.979389732860306,3.3380101000591065,2.7471324862865196,2.739353464309873,1.972929095832824,1.9512086750155044,1.935141936560637,1.8737546151812947,2.1225956279191247,1.9912425960186906,2.0773262411351032,2.0089477767581365,2.119233561534064,2.2816777014423386,1.9444992742254872,2.063797558412265,2.087352853850833,1.9357623922100349,1.9354536259228006,1.9314204227412972,1.8742120708596168
