Fp1,AF3,F7,F3,FC1,FC5,T7,C3,CP1,CP5,P7,P3,Pz,PO3,O1,Oz,O2,PO4,P4,P8,CP6,CP2,C4,T8,FC6,FC2,F4,F8,AF4,Fp2,Fz,Cz
2.6105751563784567,2.541685223629196,2.2808651413585075,2.1236797009301154,2.1654581930390586,2.216210070187312,1.5435681191180666,2.5380471197145136,2.407309584960689,1.9774802521017263,2.157085144970563,2.146617703210925,2.258714030203579,2.2272631332810904,2.124887154354377,2.083578924984602,2.198210653236404,2.418132329195889,2.7085266870622786,1.9699089784101986,1.8257919338573319,2.5367847081419246,2.1515289546225658,1.9127829623338788,2.16691445070072,2.2776142335797216,1.9439915752917136,2.119733201716819,2.0949546370863463,2.279906874418125,2.428649733116487,1.9443824197773534
2.3387235493209686,2.386780042897438,2.365410380090029,1.9475706848338454,2.1989269415623345,2.2218859694927175,2.034390390774996,2.2796623152123328,2.3965593408554935,1.9105348035438448,2.114202966430735,1.9955603431967863,2.1126289159139637,2.316206591937254,1.9623168435305844,1.8975677911152327,2.0244472499879596,2.7963439564856145,2.663306987249506,2.1419037071897806,2.0251034850039096,2.1209079676038276,2.156601233298608,1.975398888519252,2.185985258166398,2.1037999309968027,2.3285263671620675,2.1250457970983585,2.601384048282366,2.2027868444171603,2.5771572551339834,2.2839571845262014
2.5421068341679436,2.571687676054979,2.157977983204373,1.960945044639091,2.3843097864894487,2.331145758427184,2.0024233202318014,2.4640318444810965,2.149439211833111,1.9383452089309425,1.9209652018704644,1.9782277779379043,1.9049502402417997,1.9773160601926352,1.9953012595798383,2.00982814007462,2.083395037958495,1.9529069237158334,1.7699433766414943,2.308779415241965,2.056448023830916,2.2780880599504236,1.9287036184399464,1.8995087017717496,2.2270758117042875,2.0739222422636514,2.188222231145122,2.0219676592176326,2.273670040978189,1.9628091273898896,2.8037059622485243,2.1714530548168853
2.0577391864321726,2.0900867568982924,2.354559674099239,2.2042722956780065,2.0797539757515824,1.9915853681721085,1.9738654215744,1.8481636364144156,2.303119617564356,2.0017309078087027,1.7750036818635087,2.0845414075687714,2.264798584701222,2.2429139879931705,2.239467406361909,2.389276715922508,2.164866345965047,1.8972374211051855,1.6550742195803254,1.9197290429225005,2.1337461162138673,2.2463660598658435,2.259923045920971,1.4335757619302756,1.5966423141882449,2.360610373519061,2.1005874421120168,2.025017116459784,1.9263601387869818,1.8259964960389816,2.2629871783798015,2.307429035190379
2.1242898555609324,2.0870947322093367,2.0497679940346383,1.7915803819222438,1.951552593010511,1.8267018980572487,1.8110252192280578,1.782298445562848,1.764190432576017,1.9839758577320896,1.9751278146440114,2.15999002780757,1.9828291043610637,2.027032850666597,2.151527649782363,2.2796462999617653,1.8933098179392263,1.9764641120038215,2.1103058430998383,2.1796449003441887,1.67051552225184,1.8709819551099265,2.0392720813066854,1.6607955404521093,1.8580802449515246,2.2699844768614796,2.0725227985703922,1.9694707916999261,2.1174395756256197,1.6823854410666728,1.9603178132116494,2.380159743800286
2.28281101053486,2.3051497503587144,2.406718771633002,1.9931004945125081,2.255041411138051,1.961424390639635,2.0782390960849604,2.2115457793481754,2.0119993091510087,2.1024663879162584,2.431266430140225,2.0080557730095774,1.9696906394529805,2.1247944060569424,2.4700004900420067,2.361586600933595,2.5377750346696533,2.2046152513568553,2.1361013319146753,2.170858901161778,2.034542272735149,1.9082591914980644,2.130782474992375,1.9317157305227326,1.8461194714343951,2.1889621641512664,2.00793322856321,1.9214966653516579,2.1651693504286733,1.7854632462590472,2.240942160921601,2.4186397826388166
2.9919695886365907,2.8110870996033084,2.148821852340145,2.088173267500077,2.333078268075574,2.039994266365075,1.628100611129657,1.9569335194290847,2.25630342742439,1.945316389193501,2.132481069365498,2.0992497618775534,1.8467667254788627,1.9849365777995007,2.179062422234231,2.3727053738339197,2.36545590217596,2.0236367590420645,2.4216969128966412,2.0104903344643836,2.2037996540252984,2.297108994557792,2.088537048254094,1.2414209699709344,1.6765314469689225,2.5478063581740447,2.5600238637375945,1.7370057031686288,2.2600507175454223,1.8491003577199727,2.5647745812383986,2.7024947504978782
2.056648588129194,2.078916083119587,2.1196915224784494,1.9452881225613488,1.9803333690557976,1.652536676202179,1.8575662918516218,1.6178835626380939,1.7654297361949778,1.8477141915570157,1.896882021855002,1.9269380678097048,1.6825981344006071,2.0429839128153056,1.946306238945303,2.0408525809698634,2.4838533880564526,2.3853130350626817,2.2803469261347455,2.026859725433981,1.9996838055635229,1.8706414132827291,1.6564345255652841,1.7572250967850127,2.012653597423339,1.8113379018428382,2.028651329822286,1.976636111487174,1.945284426730834,1.6351836953116925,2.4395540150106805,1.91450614351092
2.344066318352267,2.3193281544593045,2.283174200577818,2.06154902511082,2.1733101241229247,2.075797102053578,1.6456625791642359,2.1153096572450023,2.394695745103282,2.0700689307774907,2.2567802182139896,1.7804355816981277,2.1400203970590033,2.0796964668478695,1.7594799903302778,1.9569167376725956,2.1521841722718333,2.0798147881120657,2.3428095358392524,2.148363743697445,1.5942553344772112,2.270538089613642,2.122333073234289,1.726013971439662,2.091098674570939,1.9237360233264753,1.845702469298465,2.1260097362748676,1.8359211963396533,1.4612276257953059,2.024762365144625,1.8696496156455977
2.4256163740329613,2.525594860682177,2.2127263174441922,2.0338608423535924,2.163814255065759,1.9767554919634966,1.930083534318212,2.263127817263643,2.2990339999586342,2.2169672356204346,1.890349772625815,2.2852385158781763,2.2419771700854807,2.366786665598881,2.441235845019317,2.2723024067668307,2.2510200779984206,2.477955072658585,2.5231668355558043,2.5120111787291903,2.011894741250653,2.7770447585152658,2.2208502839687756,1.6899903207927405,1.9257954282453882,2.4408996100122415,2.0567938310878193,1.9284353943104517,2.1593607631885083,2.1123786463417704,1.9351817957574131,2.8990758014239777
2.3353057198199387,2.6399029282506214,2.267074107938129,1.7622558624056712,2.1501555802176386,1.8602781766792664,2.270513291978613,2.306932096084052,2.812372237600395,2.0393670467215412,2.4388100002264674,2.2447227019086613,2.3415455449977505,1.9873325628052394,2.409859770770035,2.4748413954310875,2.6621129484981307,2.2311102917802397,2.4231653366340247,1.8737166053790002,2.003585850371519,3.101052357706363,1.9893403304155162,1.9625511377545997,2.314714726398919,2.680311421967644,2.1543205058017256,2.0271011322314116,2.0973748038509203,1.9617530656894495,2.4341763185546395,2.321546447107604
3.0394830734953913,2.91478370535432,2.31361384826586,2.3439775520859003,2.0759370693049872,2.5444351082292544,2.2178920741388697,2.0775450227888514,2.244778007244785,1.9748754826891899,2.0816301097396637,1.9512103929297138,2.476388616216107,2.325193623618306,2.0326053041714576,1.8795188998269012,1.8916121522502407,2.6012232313857973,2.377263029567354,2.2771953765482413,2.0334149076026753,2.684312783676647,2.1395278119097676,1.9510730609653066,2.0941382708408263,2.5455883336083236,2.3835396980046606,2.123117694885386,2.191977541202623,2.1212512640149015,2.707243999471535,2.5624899975453688
2.816862442631757,2.630344734653511,2.629783099420084,2.1233737737079292,2.206458030307347,2.477876405765337,2.1350051033975763,2.1410711448317463,2.638814780186086,2.2089553437156066,2.251464562256617,1.7620869208330028,2.596102602846154,2.310099948058283,2.094459621073416,2.3810323881191358,2.30088395286734,2.562412380717994,2.2418397756062722,2.112185255621507,2.2004774262788485,2.832883755004285,2.372936348426767,1.9716269575028569,1.8929577777188547,2.3179046588098524,2.1782494397023813,2.259196092433714,2.3152665453554246,2.1533017925502222,2.5099759653672584,2.734999132313938
2.258548280874808,2.4554049287377158,2.3907732157882338,1.8469253607922373,1.7762225760689216,1.8678253790859238,1.8528568002520773,1.8885523182538912,1.8118973316465776,1.9707874207013099,1.817761278054936,1.89991676809006,2.1022090699106077,2.0574580583780846,1.9459143682496107,2.3347334519952794,2.2876885977317967,1.9999304464692087,2.11579566145515,2.2533605038914626,1.8038239578505828,2.332146641902897,2.2409902651541236,1.8113257066043842,1.8323893741300799,2.1050213956654455,2.0709184702483734,2.077289090168742,2.376796070672114,1.889329640584138,2.627712201919872,2.0938051569189584
3.0909986547191792,2.987157083928284,2.345151671871727,2.2008128694103317,2.3694208574707623,2.5825000428588503,2.1468504796254417,2.557911979775041,2.8181702427227897,2.113995875139862,2.243136797119993,2.237265940465626,1.9929191367446482,2.1854443404606263,1.992902122335983,2.088303236508915,1.9501031753447644,2.132416869723568,2.249652672493791,2.3475762434130023,1.5820738096065534,2.65698423183684,1.9012475239659803,1.6547668008820602,2.1195598002873166,1.9704026563107502,2.3048073600877155,2.155974124562423,1.9538516614461803,1.4003618845487456,2.294252368347028,2.4986198218866327
2.767982664975519,2.4588322804891694,2.2473636786960567,2.099583810258246,1.7151799982585296,2.2702241310779505,2.1151044592623887,2.2602115787283292,2.354455770755795,1.8815591925213533,1.6615904215345003,2.152042423885675,2.7584134419901747,2.213830552278104,1.929898659420202,2.100271692609123,2.0068952882383493,2.183932646181837,2.552542379562168,2.0024443351400425,2.0099672649136813,2.206563298549083,2.1493192626725675,1.6080682196437743,1.9502863981579532,2.1270004295056215,2.301047731034124,2.143936345694985,2.06367247827088,2.5826771993321738,2.6010574346591,2.67134322113238
3.3704500860526214,3.1796264660619804,2.4512607872447645,2.1624106796037976,2.3470419910250855,2.6804517784758253,2.181769147757265,2.431242499890191,2.1356912107651436,2.0185120771878715,1.9444997787746106,2.374904740148677,1.9557962002142621,2.2466946598477753,2.2471517528231706,2.164115779643608,2.0296364310679578,2.214411610780744,2.1791445612043465,2.12276765962964,2.0484158998033504,2.4247041297752085,2.2222746974386016,1.7959906855480696,1.8952718315477157,1.907331857258787,2.1591385411486863,2.018657267052676,2.237987684834051,1.7089578159032257,2.4953476162571877,2.3358373086065156
2.1461415444833607,2.802770011010802,2.271431547334436,2.6288544323413356,2.1200230954853616,2.3239226702160427,2.139340013690352,2.185777079358038,2.4097262181129775,2.2605812662053113,2.2818682041951925,2.2699869297107647,1.833228144518216,2.5248227722226075,2.286120876198382,2.2543050244518787,2.006139025753618,2.320139123979061,2.220834929512109,2.3392154428278342,2.142150794504513,2.0510908386827444,1.8809030384214238,1.5545318345007508,2.0363134369970157,2.3563831777355144,2.5476514931885537,1.9876887535787482,2.1912005737119586,1.5966247244252483,2.2839103566838834,2.5657352855484534
2.364857567967283,2.228349864381274,2.187331606208085,2.134982658672712,2.297767157215757,1.8531182109465272,1.8255387549120858,2.0670075769002527,2.2421770080962498,2.3685426067416984,2.025818640123016,2.0749217290983144,2.4678056052859074,2.2789370426565805,2.060335873391649,2.1984647811679796,2.0969004476022075,2.1777954747509107,2.2860087316927755,2.1023378001808273,1.7630545856096127,2.1803746468341134,2.158499079938744,1.724389560422245,1.6737144413579235,2.5872830008345655,1.9971435761474012,1.6455341274074222,1.9978444038245886,2.5345439230965336,2.1334209221623426,2.5976637087797325
2.2283252758182956,2.1796007336501244,2.5603120706409515,2.251551917506326,2.52142815184491,1.7694252173704559,1.8032240274661566,2.109852534507552,2.049088669018168,2.1600274719280868,2.276722461948914,2.0857361932235343,1.9832846033671876,2.082512404307884,2.2138659673713397,2.155835654996564,2.388892005546131,2.4098682582392907,2.34923894431127,2.30872106491633,1.8817677547435165,2.311590438800182,2.2166649407637324,1.091869090018796,2.006310336531851,2.492033037590097,2.2549069332785656,2.1488776159805485,2.1801912298719057,2.2263452368616368,2.36040555708306,2.3484731242345536
1.9800157956935296,2.0165642689379966,2.110619894347615,2.1179195803959505,1.7092497326687306,2.277688555145721,1.8448131710049889,2.201648142157171,2.5564038748144613,1.8353985528665349,2.282083134955332,1.959273856244418,2.168659747027857,2.1723226136295586,1.8028314990348597,1.746139064222928,1.8016034990590706,1.9366377991406987,1.912645442698535,2.0432874562483416,1.7024448827463787,2.1293031003704987,1.930281791554144,1.863372838907173,1.5891868087014875,1.7510957181047868,1.8540425353214223,1.5691087786217655,1.8424186210987452,1.221542951814718,2.1907929635347134,2.0820226901749437
2.1660858486463375,2.0716492985784023,2.433208885058308,2.204213625251094,2.201664044438104,2.318451046314415,1.8839909009238014,2.286039737252147,1.902883132682853,2.0162862381724866,1.999787969840966,2.5923269680289636,2.2622521838786396,1.980222237878943,2.0121680084755384,2.1584624852197787,2.168130884167719,2.2187276701918517,2.3191631933658887,1.729275451718633,1.9973181495730228,2.3485512023454604,2.049857875034268,1.6915507705524448,2.0157643243050796,2.02780552772758,2.053306146157838,2.0584471288247848,1.8422162281879917,1.89949321480668,2.76207841007545,1.8975529301398248
2.9153549840139883,2.8535532800626866,2.2115534205639844,2.3698076573477773,2.0451581116068884,2.093656149966564,1.9427894424439394,2.522056906564017,2.0557780515215387,2.116400791327145,2.3931786800554433,2.46462462966396,2.0794467823965768,2.48396345375925,2.5592929870458234,2.5476913127785163,2.4530664435506377,2.592584262788428,2.273586260962771,2.48374582675083,2.3295240148759975,2.1008297309754393,1.9775215097863847,1.5860112333887837,2.2825658135548434,2.3680535287935274,2.358951716869358,1.9625078983137658,2.8690195397057723,2.058468523564939,2.6199757711627303,2.6118325584695716
2.2112109765686414,2.3391028439812853,2.1891539602625234,2.232905375719836,2.2457817283725054,2.306623768298516,2.172023442894042,2.113189978725133,2.1059084717821035,2.1195533683438272,2.1745890733986766,1.9500376799122559,2.4776287357415923,1.9432771516057978,2.092961782188417,1.994157376187461,2.196312802407963,2.3086218249323838,2.221818190710927,2.034271703855987,1.8294988295467693,2.014043225464647,1.876041187466734,1.7092012815753903,1.8034997637938086,2.1317975462578285,2.0213835416902106,1.9352715648724186,1.9001896504466085,1.7023409346354852,2.3899656528661817,2.2776461055782082
2.5030300667483707,2.581847914975321,2.040850439585281,2.6438484119225456,2.105702519962534,2.4608036133820175,2.0831890808358526,2.4644844544133067,2.365861132985287,2.5906213764842483,2.1094950834459922,2.1146102480363584,1.4277252312030464,2.7264046157256114,2.3526715440993287,2.4106223607588975,2.5091122938994825,1.9484547854813663,2.1283217725064674,2.0165669322794817,1.9408880731946112,2.0774353136801844,2.1632550371687165,1.5611847604601699,1.9701292235220362,2.28443237485104,2.130451183768026,1.5592795210973436,2.103302877794005,1.7853433275464357,2.4742762559059863,2.185480966127182
3.037892493182082,2.8471864421075903,2.0702170557838055,2.7018557820231037,2.031458858863215,2.8812504711016906,2.264256609995714,1.992381831313991,1.6032183888209677,2.1929810129707636,1.9953438750609573,2.321807039399066,2.1029831617538175,2.2325170139577186,2.215363517947197,2.4022276687337247,2.0738412638701815,1.8570162084891564,1.9830414098148996,2.0918396299891295,2.130161959458388,2.2021115943868175,1.7395648589177573,1.6677648411234873,1.6552616089408454,2.4964792700506058,1.971621448605234,1.7945244787474983,2.440476291490831,1.8799093066312458,3.0390853539297242,1.1760700706422549
2.5263377017301214,2.5348833110736497,2.4164554090360917,2.3583617387699003,2.2861058597012702,2.3697052265811003,1.992373574531762,2.2403058493883905,2.4973055033216855,2.18523735992916,2.0404857921037682,2.1149238370894516,2.3056371177582355,2.3093364312055287,2.1229481552129923,2.2938260770196455,2.3162717666683874,2.2142078330451427,2.0618182746243203,2.154899123967824,2.093768579583443,2.0014879213171874,2.0060826345928944,1.8554922713111386,2.409112375626607,2.599929088020005,2.0717524134961085,2.446913810060111,2.5144337224393625,1.4600832456395698,2.7149898986468166,1.610678023242739
2.2942065624772843,2.2541635760094945,2.490227818851394,2.4053120997934276,2.278710066998324,2.2900160538345133,2.0449822072987343,2.3770146481982444,2.726575721225682,2.2251615773868507,2.0117500268207857,2.1246670873068014,2.32363504794021,2.0290687469766837,2.2017648625832744,2.1747524349802934,2.1236122096318875,2.423117195081292,2.5186188222685026,2.362330014504373,2.2220568899779516,2.306746524865345,2.339053207614264,1.6337991745206148,1.5504716445605236,2.3174273934169367,2.0988175334744947,1.5740858858923747,2.393025358594525,1.8313943961480996,2.2558080923048482,2.7521105320793087
2.1560318215528462,2.2811599708347376,1.961858622610071,2.0133121193013004,2.2552566874260336,2.02137413709819,2.0494119448295507,2.0708209888642073,2.175215362738509,1.9488452955467963,1.7220536200936538,1.6365775702066188,1.7430205019929492,1.8710376034721232,2.163134518416912,2.2768750714894352,2.0116136445614816,2.138527678805343,1.9640618581697074,2.165831785656931,1.976508568571123,1.7500847963907138,2.200132781006497,1.927597827982419,1.7028641992851121,2.1095810693576587,2.141978950509253,1.5365168903767052,1.952349707481511,1.663870326345428,1.9435560120496942,2.454311705962893
3.0304032342583906,3.257460928597273,1.993765614910535,2.1027719160428067,1.916261074177013,2.101236960193155,1.83989858733294,2.087230196149801,2.322327004512343,2.100402610440409,2.2534727990805243,2.336222469012074,2.1223722002389347,2.310899037645185,2.2589015706636557,1.9260710070981255,2.086459357462841,1.9425935635457794,2.140635373429741,1.7385076571921187,1.5802269280587466,2.2384055138529577,1.7486682898210393,1.4278913370255188,1.9897635298061138,2.258661969036993,2.0516520936756595,2.1755257217202364,2.212093537234061,2.227663933619307,2.4378405174310576,2.517177287486187
3.2553202751582684,3.0440925679572843,2.1827513277892194,2.3194781918205596,2.75931242189409,2.2287253056635086,1.5008558045877256,2.270068532266978,2.4117764495832774,2.1848313739038323,2.279528043926863,2.324613645489723,2.2823340567594657,2.4751306846634757,2.1508249777706836,2.322310781149288,2.365051170998023,2.4603788017159034,2.4920651675767074,2.238267192289558,2.4709029040405315,2.2525094918908226,2.219980851566063,1.7618854973937568,2.197080917822359,2.520734503201912,2.1897827794430977,2.233371613411475,2.3687303113161042,3.439404995172328,2.906852977573145,2.6459581694031007
3.331524750530422,2.678615646088641,2.3189485450812213,2.8044630040949228,2.1354669872006165,2.4604664649681744,2.1820429578410803,2.145413247297146,2.2091580409050753,2.130072383810819,2.1670308304121217,1.6707882884838745,2.1637337879747123,2.118020047124813,1.8230019468487029,2.204232138325193,2.0219712295655796,2.384338999046,2.3648768741536594,1.951112248010103,1.900589620931414,2.1672596171647327,1.9192635329094492,1.9306294177881222,1.9350994090456728,2.1121582973307427,1.7000136743409855,1.8067258196718983,2.2836115521134692,2.26170041101588,2.853204341147689,2.1978414501521923
2.3928330095522283,2.499842063205996,1.8331711028628217,2.079087062600621,2.0267375396204175,1.863066867187725,1.781932692434523,2.0099891920244146,2.4327140120437822,1.9698491255058432,1.739144678154802,2.080824977894279,2.3219742704581936,2.529646862835504,2.3190600649279642,2.4340483469655854,2.521348327232471,2.5431398107487815,2.350659731968025,2.0324669063794927,1.6731736541428148,2.305492681885822,2.6351740449412087,1.2324709556166833,1.8710100882168652,2.5179801792262713,1.9924148286186392,1.887691589025007,2.094493494085232,2.1248978720733547,2.6950429532105047,1.2039448689436987
2.331482789286701,2.4933143253451475,2.1491755804042088,2.71922806399406,2.1161379757237184,2.177142477716409,1.5728588733207065,2.2554078357849825,2.400102832159185,2.261017833262525,2.0316448020683984,1.879107335559352,2.2226025068782085,1.8176163759144257,1.8617738791124743,2.1124224248889103,2.3105164207271445,2.2371933969124247,2.1161649287348814,2.00774550657764,2.0426644311316933,2.0572181200121387,2.092950514585502,2.0206284222580075,1.9084669631639872,1.9178660193149248,2.1502251149828653,1.6661460776979313,2.814381697739668,2.1756598780632057,2.495111868206275,2.04641861045679
2.1375218089464916,2.1616095196058676,2.4764011488612057,2.0906493437194404,1.8486999375569244,1.9492325047011385,1.806361042190348,1.4295329902694798,1.5292878189307721,2.132472353921098,1.6189293829126035,2.0731865806819973,1.815862513181329,2.4460495135103417,1.6531727907438498,1.9302871263564516,2.192146271641095,2.1406526861947968,2.1512315441356527,2.094892272274964,1.8480843445475865,2.229060493429007,1.9799309003341121,1.5818323541962287,1.8270089364002473,1.9168022020300446,2.0195535166752663,2.055924239017264,2.0621729598021754,1.4797755144118843,2.319808437917257,1.3830739751691643
2.5102074460049315,2.4445944507239754,2.1445711231831748,2.3115429579148015,1.980544046532294,2.2597032990345456,1.899950601086516,2.0844049462658587,2.3190487618757656,2.22121622198774,2.167295702335899,2.370366159718036,2.1020967697952693,2.066880067691653,1.8950678113326596,2.15862525455307,2.1696087534899515,2.3051343496068033,2.3367439004522965,1.6208516259619714,1.6601759885674459,2.0536407142652586,2.015414107357274,1.776151430062318,1.860105560527703,2.2223966565153375,1.6114165881192928,1.6727897957553586,2.2815737445329782,1.8406312036870698,2.5744355706287854,2.1801621079400686
